Wavelength (nm)	Intensity
377.35	842.50
377.48	604.50
377.62	599.50
377.75	611.50
377.88	833.00
378.02	828.50
378.15	817.00
378.28	778.50
378.41	857.00
378.55	825.50
378.68	810.00
378.81	800.50
378.95	833.00
379.08	817.50
379.21	773.00
379.35	843.50
379.48	847.00
379.61	912.00
379.74	823.00
379.88	799.50
380.01	869.00
380.14	941.50
380.28	857.00
380.41	783.00
380.54	834.00
380.68	841.00
380.81	750.50
380.94	857.00
381.07	904.00
381.21	899.00
381.34	822.50
381.47	775.50
381.61	958.50
381.74	828.00
381.87	784.00
382.00	831.50
382.14	908.50
382.27	863.00
382.40	774.50
382.54	874.50
382.67	887.00
382.80	789.00
382.93	804.50
383.07	816.00
383.20	825.00
383.33	856.00
383.47	794.00
383.60	782.00
383.73	955.50
383.86	849.50
384.00	818.50
384.13	817.00
384.26	852.50
384.40	879.00
384.53	816.50
384.66	854.00
384.79	843.50
384.93	814.00
385.06	805.50
385.19	827.00
385.33	942.50
385.46	850.50
385.59	782.00
385.72	829.00
385.86	781.50
385.99	821.00
386.12	800.00
386.25	775.50
386.39	879.00
386.52	876.00
386.65	810.00
386.79	805.00
386.92	810.00
387.05	905.50
387.18	783.50
387.32	792.50
387.45	859.00
387.58	828.00
387.71	796.50
387.85	793.00
387.98	838.00
388.11	845.50
388.25	828.50
388.38	822.00
388.51	856.50
388.64	869.50
388.78	802.00
388.91	781.50
389.04	823.50
389.17	931.50
389.31	836.50
389.44	866.50
389.57	888.50
389.70	855.50
389.84	816.50
389.97	800.00
390.10	803.50
390.24	852.50
390.37	805.50
390.50	803.50
390.63	903.00
390.77	816.50
390.90	817.00
391.03	822.00
391.16	786.50
391.30	807.00
391.43	816.00
391.56	805.00
391.69	803.00
391.83	869.00
391.96	831.50
392.09	806.50
392.22	906.50
392.36	841.50
392.49	798.00
392.62	801.50
392.75	856.50
392.89	891.00
393.02	793.00
393.15	797.50
393.28	767.00
393.42	906.50
393.55	779.50
393.68	811.00
393.81	755.00
393.95	804.00
394.08	808.50
394.21	806.50
394.34	873.50
394.48	843.00
394.61	856.50
394.74	840.00
394.87	873.00
395.01	857.50
395.14	850.50
395.27	792.00
395.40	921.50
395.54	934.00
395.67	822.50
395.80	809.50
395.93	846.50
396.07	805.00
396.20	796.50
396.33	752.00
396.46	800.50
396.59	833.50
396.73	814.50
396.86	785.50
396.99	873.50
397.12	841.50
397.26	824.00
397.39	810.50
397.52	1123.50
397.65	933.00
397.79	823.50
397.92	810.50
398.05	873.00
398.18	807.00
398.32	812.00
398.45	849.00
398.58	852.50
398.71	859.00
398.84	775.50
398.98	821.50
399.11	837.00
399.24	839.50
399.37	804.00
399.51	782.50
399.64	828.50
399.77	835.00
399.90	827.00
400.03	827.00
400.17	785.00
400.30	892.50
400.43	846.00
400.56	814.00
400.70	830.50
400.83	797.00
400.96	793.00
401.09	833.50
401.23	825.50
401.36	885.00
401.49	796.00
401.62	808.50
401.75	812.50
401.89	790.00
402.02	809.00
402.15	825.00
402.28	842.00
402.41	833.50
402.55	800.50
402.68	806.50
402.81	885.00
402.94	864.00
403.08	789.50
403.21	782.50
403.34	863.50
403.47	854.00
403.60	802.50
403.74	838.50
403.87	859.50
404.00	804.50
404.13	795.50
404.26	788.00
404.40	788.50
404.53	842.50
404.66	820.50
404.79	786.00
404.93	866.00
405.06	813.00
405.19	771.00
405.32	839.50
405.45	850.00
405.59	869.00
405.72	829.00
405.85	806.00
405.98	993.00
406.11	811.50
406.25	791.50
406.38	810.00
406.51	845.00
406.64	827.50
406.77	784.00
406.91	777.00
407.04	839.00
407.17	809.00
407.30	835.50
407.43	812.50
407.57	912.50
407.70	890.00
407.83	800.50
407.96	819.00
408.09	777.00
408.23	905.00
408.36	819.50
408.49	802.00
408.62	935.50
408.75	844.00
408.89	798.50
409.02	844.00
409.15	818.00
409.28	888.50
409.41	852.50
409.55	797.50
409.68	952.50
409.81	850.50
409.94	794.50
410.07	825.50
410.20	834.00
410.34	821.00
410.47	818.50
410.60	834.50
410.73	857.50
410.86	802.50
411.00	831.00
411.13	793.00
411.26	839.50
411.39	821.50
411.52	846.00
411.66	819.50
411.79	810.00
411.92	802.00
412.05	815.00
412.18	812.50
412.31	850.50
412.45	872.50
412.58	868.50
412.71	789.00
412.84	836.00
412.97	906.50
413.11	831.00
413.24	822.00
413.37	860.00
413.50	922.50
413.63	841.50
413.76	816.50
413.90	859.50
414.03	813.00
414.16	816.00
414.29	838.50
414.42	829.50
414.56	925.50
414.69	802.50
414.82	820.50
414.95	824.50
415.08	848.50
415.21	825.50
415.35	830.50
415.48	764.00
415.61	877.50
415.74	875.50
415.87	785.50
416.00	835.00
416.14	951.50
416.27	834.00
416.40	790.00
416.53	821.00
416.66	866.50
416.79	829.00
416.93	793.50
417.06	884.00
417.19	836.50
417.32	800.00
417.45	802.00
417.58	785.00
417.72	883.00
417.85	811.00
417.98	829.00
418.11	861.50
418.24	812.50
418.37	804.50
418.51	821.50
418.64	833.00
418.77	908.00
418.90	836.50
419.03	777.00
419.16	839.50
419.29	878.00
419.43	806.00
419.56	777.50
419.69	933.50
419.82	880.00
419.95	829.00
420.08	858.00
420.22	902.00
420.35	958.50
420.48	866.00
420.61	813.50
420.74	771.00
420.87	863.50
421.00	774.50
421.14	804.50
421.27	861.00
421.40	902.00
421.53	844.50
421.66	832.50
421.79	822.00
421.93	825.50
422.06	824.00
422.19	801.00
422.32	872.50
422.45	888.50
422.58	836.50
422.71	813.00
422.85	875.00
422.98	861.00
423.11	788.50
423.24	772.50
423.37	796.00
423.50	800.50
423.63	818.00
423.77	794.00
423.90	799.00
424.03	858.00
424.16	850.00
424.29	817.50
424.42	771.00
424.55	790.00
424.69	789.50
424.82	826.00
424.95	845.50
425.08	791.50
425.21	840.00
425.34	810.00
425.47	821.00
425.60	835.50
425.74	772.50
425.87	813.00
426.00	821.00
426.13	834.50
426.26	787.00
426.39	795.50
426.52	816.50
426.66	899.50
426.79	852.00
426.92	788.50
427.05	926.50
427.18	889.00
427.31	811.00
427.44	819.50
427.57	797.00
427.71	828.50
427.84	789.00
427.97	823.00
428.10	888.50
428.23	832.00
428.36	815.00
428.49	734.00
428.62	965.50
428.76	921.00
428.89	829.50
429.02	781.50
429.15	827.00
429.28	939.00
429.41	802.00
429.54	810.00
429.67	815.00
429.81	859.00
429.94	824.50
430.07	802.50
430.20	872.50
430.33	907.50
430.46	787.00
430.59	794.50
430.72	832.50
430.85	782.00
430.99	816.00
431.12	788.00
431.25	879.50
431.38	897.00
431.51	834.00
431.64	815.50
431.77	904.00
431.90	896.00
432.03	827.00
432.17	797.50
432.30	847.50
432.43	848.00
432.56	814.50
432.69	845.50
432.82	848.00
432.95	889.50
433.08	824.00
433.21	824.50
433.35	821.00
433.48	833.50
433.61	785.50
433.74	819.50
433.87	798.00
434.00	861.00
434.13	788.00
434.26	849.00
434.39	849.50
434.53	862.50
434.66	816.50
434.79	812.00
434.92	802.50
435.05	895.00
435.18	798.00
435.31	844.00
435.44	898.00
435.57	832.00
435.70	806.50
435.84	782.50
435.97	886.00
436.10	939.00
436.23	816.00
436.36	799.50
436.49	819.00
436.62	845.50
436.75	811.00
436.88	834.50
437.01	790.50
437.14	800.50
437.28	769.50
437.41	801.00
437.54	894.50
437.67	846.50
437.80	792.50
437.93	767.50
438.06	953.50
438.19	888.00
438.32	790.50
438.45	803.00
438.58	847.50
438.72	904.50
438.85	862.50
438.98	807.50
439.11	849.50
439.24	912.00
439.37	878.50
439.50	857.00
439.63	884.50
439.76	810.00
439.89	798.00
440.02	798.00
440.15	844.50
440.29	897.00
440.42	827.50
440.55	820.50
440.68	909.00
440.81	965.50
440.94	834.00
441.07	827.50
441.20	925.50
441.33	842.00
441.46	813.00
441.59	796.00
441.72	832.50
441.85	837.00
441.99	854.50
442.12	860.50
442.25	918.50
442.38	850.00
442.51	856.50
442.64	787.50
442.77	839.50
442.90	821.00
443.03	791.00
443.16	796.50
443.29	833.00
443.42	905.00
443.55	803.50
443.68	821.50
443.82	777.50
443.95	807.00
444.08	817.50
444.21	818.50
444.34	808.50
444.47	829.50
444.60	817.50
444.73	841.00
444.86	836.00
444.99	893.00
445.12	845.50
445.25	838.00
445.38	849.50
445.51	869.00
445.64	833.00
445.78	797.00
445.91	769.50
446.04	932.00
446.17	861.00
446.30	784.50
446.43	865.50
446.56	837.00
446.69	795.00
446.82	798.00
446.95	886.50
447.08	891.50
447.21	838.00
447.34	813.00
447.47	877.50
447.60	851.00
447.73	827.50
447.86	854.50
447.99	847.50
448.13	854.50
448.26	869.00
448.39	819.50
448.52	857.50
448.65	880.00
448.78	827.50
448.91	834.50
449.04	879.00
449.17	798.50
449.30	841.00
449.43	832.50
449.56	830.00
449.69	899.00
449.82	824.50
449.95	770.50
450.08	892.50
450.21	865.50
450.34	824.00
450.47	824.00
450.60	873.50
450.73	834.50
450.87	814.50
451.00	840.50
451.13	864.00
451.26	1003.00
451.39	809.00
451.52	861.00
451.65	825.00
451.78	811.50
451.91	801.50
452.04	805.00
452.17	926.50
452.30	916.50
452.43	815.50
452.56	809.50
452.69	874.00
452.82	798.50
452.95	866.00
453.08	795.50
453.21	758.50
453.34	863.50
453.47	800.00
453.60	876.00
453.73	918.50
453.86	854.00
453.99	835.00
454.12	830.50
454.25	829.50
454.38	838.00
454.52	794.00
454.65	812.50
454.78	801.00
454.91	776.00
455.04	802.00
455.17	793.50
455.30	804.50
455.43	903.00
455.56	817.50
455.69	784.50
455.82	861.50
455.95	846.50
456.08	786.50
456.21	787.50
456.34	783.00
456.47	774.50
456.60	799.50
456.73	798.50
456.86	810.00
456.99	855.50
457.12	793.50
457.25	814.00
457.38	880.50
457.51	872.50
457.64	840.00
457.77	806.50
457.90	821.50
458.03	817.00
458.16	817.50
458.29	823.00
458.42	825.00
458.55	763.00
458.68	802.00
458.81	820.00
458.94	900.00
459.07	927.50
459.20	780.50
459.33	789.00
459.46	891.00
459.59	930.00
459.72	887.50
459.85	807.50
459.98	907.50
460.11	870.00
460.24	836.00
460.37	783.00
460.50	867.50
460.63	838.00
460.76	805.00
460.89	834.00
461.02	845.00
461.15	858.00
461.28	831.50
461.41	820.00
461.54	909.50
461.67	795.00
461.80	822.00
461.93	874.00
462.06	856.50
462.19	884.50
462.32	818.00
462.45	810.00
462.58	869.00
462.71	818.50
462.84	816.00
462.97	769.50
463.10	827.50
463.23	839.50
463.36	858.50
463.49	828.50
463.62	783.50
463.75	845.50
463.88	813.50
464.01	832.00
464.14	790.00
464.27	927.00
464.40	822.50
464.53	820.00
464.66	862.50
464.79	848.50
464.92	841.50
465.05	800.00
465.18	829.50
465.31	831.50
465.44	812.00
465.57	813.50
465.70	817.00
465.83	949.00
465.96	840.50
466.09	806.50
466.22	877.50
466.35	854.50
466.48	803.00
466.61	811.00
466.74	833.50
466.87	883.50
467.00	856.50
467.13	850.50
467.26	869.00
467.39	787.50
467.52	787.50
467.65	815.00
467.78	901.00
467.91	829.00
468.04	831.50
468.17	804.50
468.30	819.00
468.43	791.00
468.56	803.50
468.69	841.50
468.82	864.00
468.95	798.00
469.08	806.50
469.21	833.00
469.34	873.50
469.47	946.50
469.60	894.50
469.73	835.00
469.86	848.00
469.99	882.50
470.11	801.50
470.24	814.00
470.37	882.00
470.50	838.00
470.63	799.50
470.76	826.50
470.89	868.50
471.02	948.00
471.15	810.00
471.28	818.50
471.41	934.00
471.54	868.00
471.67	826.00
471.80	764.50
471.93	881.00
472.06	853.00
472.19	821.50
472.32	797.50
472.45	942.50
472.58	882.50
472.71	840.00
472.84	799.50
472.97	809.00
473.10	791.00
473.23	868.00
473.36	788.00
473.49	902.50
473.62	890.00
473.74	858.50
473.87	862.00
474.00	808.50
474.13	814.50
474.26	842.50
474.39	864.00
474.52	837.50
474.65	837.50
474.78	836.00
474.91	787.50
475.04	860.00
475.17	950.50
475.30	863.50
475.43	845.50
475.56	880.00
475.69	839.00
475.82	867.50
475.95	806.00
476.08	908.50
476.21	843.50
476.34	869.00
476.46	871.50
476.59	900.00
476.72	822.50
476.85	832.50
476.98	800.50
477.11	887.50
477.24	845.50
477.37	773.00
477.50	826.50
477.63	857.00
477.76	813.00
477.89	774.50
478.02	795.00
478.15	830.50
478.28	833.00
478.41	851.50
478.54	829.50
478.66	876.00
478.79	844.50
478.92	826.00
479.05	844.00
479.18	857.00
479.31	808.50
479.44	814.50
479.57	811.00
479.70	828.50
479.83	852.50
479.96	816.50
480.09	851.50
480.22	972.50
480.35	957.00
480.48	886.50
480.60	843.00
480.73	842.00
480.86	871.00
480.99	831.00
481.12	825.50
481.25	856.00
481.38	912.50
481.51	831.50
481.64	849.00
481.77	883.50
481.90	834.00
482.03	833.50
482.16	817.50
482.29	904.50
482.41	831.50
482.54	859.50
482.67	817.50
482.80	852.50
482.93	897.00
483.06	812.00
483.19	901.00
483.32	873.50
483.45	841.50
483.58	852.00
483.71	878.50
483.84	888.00
483.97	884.00
484.09	847.00
484.22	820.00
484.35	810.00
484.48	794.50
484.61	831.00
484.74	832.00
484.87	865.00
485.00	783.50
485.13	850.50
485.26	796.50
485.39	869.50
485.52	837.50
485.64	922.00
485.77	874.00
485.90	889.00
486.03	796.00
486.16	855.50
486.29	807.50
486.42	843.50
486.55	867.50
486.68	838.00
486.81	875.00
486.94	865.50
487.06	830.00
487.19	880.50
487.32	872.00
487.45	853.00
487.58	826.50
487.71	853.50
487.84	802.00
487.97	869.00
488.10	887.50
488.23	840.50
488.35	798.50
488.48	825.50
488.61	799.50
488.74	826.00
488.87	823.50
489.00	875.50
489.13	948.00
489.26	869.50
489.39	872.00
489.52	886.00
489.64	887.50
489.77	847.50
489.90	841.00
490.03	848.00
490.16	829.00
490.29	830.00
490.42	822.00
490.55	850.50
490.68	812.50
490.81	841.00
490.93	796.00
491.06	913.00
491.19	861.00
491.32	860.50
491.45	868.00
491.58	808.50
491.71	851.00
491.84	843.50
491.97	837.50
492.09	901.50
492.22	877.00
492.35	856.00
492.48	892.50
492.61	861.50
492.74	851.00
492.87	860.00
493.00	843.50
493.12	821.00
493.25	846.00
493.38	835.00
493.51	820.50
493.64	804.50
493.77	855.50
493.90	871.00
494.03	856.00
494.16	909.00
494.28	913.00
494.41	834.50
494.54	851.00
494.67	967.00
494.80	927.00
494.93	847.00
495.06	869.00
495.19	883.50
495.31	857.00
495.44	851.00
495.57	825.50
495.70	881.50
495.83	838.00
495.96	810.50
496.09	858.00
496.22	925.50
496.34	947.00
496.47	842.00
496.60	869.00
496.73	892.00
496.86	888.00
496.99	826.50
497.12	859.00
497.24	795.00
497.37	858.00
497.50	837.50
497.63	811.50
497.76	848.50
497.89	925.50
498.02	878.50
498.15	767.00
498.27	860.00
498.40	908.50
498.53	926.00
498.66	865.50
498.79	903.50
498.92	827.50
499.05	860.00
499.17	861.50
499.30	889.00
499.43	942.50
499.56	875.50
499.69	812.00
499.82	876.50
499.95	843.00
500.07	823.50
500.20	842.00
500.33	901.00
500.46	996.00
500.59	863.00
500.72	869.00
500.85	928.50
500.97	905.00
501.10	898.00
501.23	811.50
501.36	875.50
501.49	936.00
501.62	882.00
501.75	864.00
501.87	908.50
502.00	817.00
502.13	875.50
502.26	867.50
502.39	841.50
502.52	842.50
502.64	806.00
502.77	840.00
502.90	892.50
503.03	846.50
503.16	835.00
503.29	834.50
503.42	917.00
503.54	876.50
503.67	867.50
503.80	864.00
503.93	921.50
504.06	823.50
504.19	838.00
504.31	907.00
504.44	880.00
504.57	885.50
504.70	867.00
504.83	812.50
504.96	880.50
505.08	857.00
505.21	874.00
505.34	953.00
505.47	918.00
505.60	901.00
505.73	907.00
505.85	906.50
505.98	996.00
506.11	846.00
506.24	828.00
506.37	822.00
506.50	874.50
506.62	911.50
506.75	838.00
506.88	850.00
507.01	879.50
507.14	822.00
507.27	863.00
507.39	819.00
507.52	857.00
507.65	847.00
507.78	880.50
507.91	831.50
508.04	926.00
508.16	937.50
508.29	877.00
508.42	854.00
508.55	835.00
508.68	845.00
508.81	910.50
508.93	849.50
509.06	858.00
509.19	895.00
509.32	888.00
509.45	865.00
509.57	892.00
509.70	825.00
509.83	869.50
509.96	815.00
510.09	867.50
510.22	866.50
510.34	867.00
510.47	853.50
510.60	972.50
510.73	879.50
510.86	878.50
510.98	848.50
511.11	844.50
511.24	925.00
511.37	890.50
511.50	850.00
511.63	877.50
511.75	869.00
511.88	857.00
512.01	881.50
512.14	875.00
512.27	885.50
512.39	865.50
512.52	861.00
512.65	875.50
512.78	841.00
512.91	866.00
513.03	868.50
513.16	917.00
513.29	878.00
513.42	864.00
513.55	833.50
513.67	890.50
513.80	814.00
513.93	845.50
514.06	841.50
514.19	886.00
514.31	895.50
514.44	899.00
514.57	853.50
514.70	876.50
514.83	924.00
514.95	849.00
515.08	872.50
515.21	893.50
515.34	867.50
515.47	857.50
515.59	853.50
515.72	892.50
515.85	909.50
515.98	922.00
516.11	865.50
516.23	923.00
516.36	941.00
516.49	883.50
516.62	870.00
516.75	933.00
516.87	934.50
517.00	851.50
517.13	903.50
517.26	942.50
517.39	901.00
517.51	816.00
517.64	866.50
517.77	943.00
517.90	841.00
518.02	872.00
518.15	841.00
518.28	797.00
518.41	879.50
518.54	858.50
518.66	877.50
518.79	840.00
518.92	853.50
519.05	837.50
519.18	859.00
519.30	905.50
519.43	838.00
519.56	849.50
519.69	861.50
519.81	916.50
519.94	863.50
520.07	810.50
520.20	851.50
520.33	889.00
520.45	937.50
520.58	885.50
520.71	896.00
520.84	926.00
520.96	895.00
521.09	878.50
521.22	856.50
521.35	914.00
521.48	912.00
521.60	850.50
521.73	869.50
521.86	942.00
521.99	964.00
522.11	889.00
522.24	875.00
522.37	906.50
522.50	894.00
522.62	932.00
522.75	823.00
522.88	883.00
523.01	862.00
523.14	890.00
523.26	886.50
523.39	955.50
523.52	850.00
523.65	969.00
523.77	909.50
523.90	879.00
524.03	874.50
524.16	868.00
524.28	861.50
524.41	865.50
524.54	875.50
524.67	831.00
524.79	855.50
524.92	896.50
525.05	943.50
525.18	845.00
525.31	915.50
525.43	848.50
525.56	998.00
525.69	852.50
525.82	814.50
525.94	920.00
526.07	925.50
526.20	905.00
526.33	918.50
526.45	1012.50
526.58	985.00
526.71	899.00
526.84	878.50
526.96	884.00
527.09	849.00
527.22	859.50
527.35	862.00
527.47	833.00
527.60	950.00
527.73	844.00
527.86	902.50
527.98	911.00
528.11	902.00
528.24	819.50
528.37	864.50
528.49	841.50
528.62	888.00
528.75	907.00
528.88	835.00
529.00	907.50
529.13	930.00
529.26	889.50
529.39	916.00
529.51	1014.50
529.64	980.00
529.77	840.00
529.90	863.50
530.02	870.50
530.15	851.50
530.28	813.00
530.40	841.00
530.53	877.00
530.66	921.00
530.79	866.50
530.91	863.50
531.04	854.50
531.17	874.00
531.30	883.00
531.42	882.50
531.55	894.50
531.68	954.50
531.81	857.00
531.93	877.00
532.06	889.00
532.19	842.50
532.31	873.50
532.44	861.00
532.57	894.00
532.70	852.00
532.82	882.50
532.95	911.00
533.08	950.00
533.21	922.50
533.33	858.50
533.46	871.00
533.59	873.50
533.71	991.00
533.84	894.00
533.97	861.00
534.10	858.50
534.22	840.00
534.35	874.50
534.48	884.00
534.61	915.00
534.73	819.50
534.86	859.00
534.99	893.50
535.11	940.50
535.24	891.50
535.37	849.50
535.50	842.00
535.62	852.00
535.75	945.00
535.88	887.50
536.00	863.00
536.13	879.00
536.26	868.50
536.39	868.50
536.51	831.50
536.64	901.00
536.77	889.50
536.89	871.50
537.02	885.50
537.15	893.50
537.28	888.00
537.40	895.50
537.53	871.00
537.66	945.50
537.78	904.50
537.91	858.00
538.04	864.50
538.17	926.50
538.29	913.50
538.42	950.00
538.55	934.00
538.67	924.50
538.80	864.50
538.93	910.00
539.05	894.00
539.18	953.00
539.31	926.50
539.44	883.50
539.56	813.00
539.69	879.50
539.82	876.00
539.94	862.50
540.07	845.50
540.20	954.00
540.32	863.00
540.45	872.50
540.58	865.50
540.71	937.00
540.83	840.50
540.96	875.00
541.09	878.00
541.21	970.00
541.34	948.50
541.47	856.50
541.59	881.00
541.72	951.00
541.85	1027.50
541.98	929.00
542.10	877.00
542.23	908.00
542.36	1010.00
542.48	902.50
542.61	890.50
542.74	859.00
542.86	868.00
542.99	889.00
543.12	861.50
543.24	901.00
543.37	845.50
543.50	892.00
543.62	849.50
543.75	870.00
543.88	882.50
544.01	891.50
544.13	912.50
544.26	932.50
544.39	863.00
544.51	866.50
544.64	836.50
544.77	920.50
544.89	864.00
545.02	890.00
545.15	868.00
545.27	968.00
545.40	936.50
545.53	930.00
545.65	921.50
545.78	818.50
545.91	846.00
546.03	864.50
546.16	882.50
546.29	878.00
546.41	838.50
546.54	877.00
546.67	854.00
546.79	923.00
546.92	968.50
547.05	846.50
547.17	892.50
547.30	857.00
547.43	922.50
547.56	853.50
547.68	888.00
547.81	846.00
547.94	913.50
548.06	873.50
548.19	855.00
548.32	961.00
548.44	898.50
548.57	910.00
548.70	928.00
548.82	945.00
548.95	917.00
549.08	886.50
549.20	880.50
549.33	992.00
549.45	900.00
549.58	862.50
549.71	845.00
549.83	944.00
549.96	853.00
550.09	895.00
550.21	871.00
550.34	901.50
550.47	872.50
550.59	885.50
550.72	824.00
550.85	908.00
550.97	957.50
551.10	881.50
551.23	887.50
551.35	962.00
551.48	895.00
551.61	887.50
551.73	874.50
551.86	960.50
551.99	962.00
552.11	908.50
552.24	936.00
552.37	905.50
552.49	852.50
552.62	872.00
552.75	926.00
552.87	874.50
553.00	864.50
553.12	901.00
553.25	868.00
553.38	904.50
553.50	944.00
553.63	874.00
553.76	827.00
553.88	895.50
554.01	891.00
554.14	893.50
554.26	912.00
554.39	970.00
554.52	881.50
554.64	887.50
554.77	862.00
554.89	914.50
555.02	946.50
555.15	910.00
555.27	893.50
555.40	896.50
555.53	941.50
555.65	889.00
555.78	855.50
555.91	932.50
556.03	986.00
556.16	866.00
556.29	905.00
556.41	957.50
556.54	959.00
556.66	886.00
556.79	869.00
556.92	891.00
557.04	904.00
557.17	871.50
557.30	881.50
557.42	888.00
557.55	904.50
557.67	909.50
557.80	883.00
557.93	892.00
558.05	898.00
558.18	856.50
558.31	897.00
558.43	954.00
558.56	912.00
558.68	904.00
558.81	859.00
558.94	884.50
559.06	1006.50
559.19	867.00
559.32	879.50
559.44	852.50
559.57	890.00
559.69	866.50
559.82	873.00
559.95	882.50
560.07	884.00
560.20	826.00
560.33	902.00
560.45	915.50
560.58	841.50
560.70	893.50
560.83	857.00
560.96	885.00
561.08	884.50
561.21	904.00
561.33	848.00
561.46	848.50
561.59	934.00
561.71	877.50
561.84	897.00
561.97	850.00
562.09	928.00
562.22	874.50
562.34	862.00
562.47	932.00
562.60	915.50
562.72	890.50
562.85	895.00
562.97	888.00
563.10	887.50
563.23	864.50
563.35	878.50
563.48	916.50
563.60	892.00
563.73	922.00
563.86	856.50
563.98	868.50
564.11	905.00
564.23	889.00
564.36	965.00
564.49	892.50
564.61	963.50
564.74	909.00
564.86	866.50
564.99	951.00
565.12	930.00
565.24	942.00
565.37	934.00
565.49	942.50
565.62	961.50
565.75	938.00
565.87	869.50
566.00	1039.00
566.12	965.00
566.25	911.50
566.38	925.00
566.50	910.00
566.63	936.50
566.75	892.00
566.88	868.00
567.01	872.00
567.13	893.50
567.26	882.50
567.38	869.50
567.51	953.50
567.64	883.00
567.76	923.00
567.89	908.50
568.01	865.00
568.14	858.00
568.26	898.50
568.39	900.00
568.52	902.50
568.64	967.50
568.77	896.50
568.89	880.00
569.02	881.50
569.15	905.00
569.27	878.50
569.40	919.50
569.52	931.00
569.65	889.50
569.77	875.50
569.90	850.50
570.03	843.50
570.15	966.50
570.28	891.00
570.40	894.00
570.53	890.50
570.66	966.50
570.78	935.00
570.91	912.00
571.03	869.50
571.16	896.50
571.28	850.50
571.41	841.00
571.54	858.50
571.66	847.50
571.79	883.50
571.91	873.50
572.04	856.50
572.16	905.00
572.29	925.00
572.42	891.00
572.54	913.00
572.67	879.00
572.79	904.00
572.92	893.00
573.04	911.00
573.17	946.00
573.29	910.50
573.42	900.00
573.55	938.50
573.67	919.00
573.80	897.00
573.92	873.50
574.05	908.00
574.17	958.00
574.30	896.00
574.43	888.50
574.55	882.00
574.68	905.50
574.80	878.50
574.93	886.50
575.05	867.50
575.18	890.50
575.30	890.50
575.43	933.00
575.56	950.50
575.68	917.50
575.81	886.50
575.93	864.50
576.06	931.00
576.18	940.50
576.31	903.00
576.43	873.50
576.56	1005.00
576.69	950.50
576.81	914.50
576.94	890.50
577.06	905.50
577.19	933.50
577.31	917.00
577.44	938.00
577.56	957.00
577.69	918.00
577.82	929.00
577.94	890.50
578.07	858.00
578.19	930.00
578.32	938.50
578.44	884.50
578.57	879.00
578.69	949.00
578.82	904.00
578.94	935.00
579.07	950.00
579.19	945.00
579.32	923.50
579.45	924.00
579.57	899.50
579.70	870.50
579.82	920.50
579.95	896.00
580.07	972.50
580.20	898.00
580.32	903.50
580.45	941.50
580.57	936.00
580.70	948.50
580.82	937.00
580.95	933.50
581.08	877.00
581.20	958.00
581.33	893.50
581.45	929.00
581.58	913.50
581.70	925.50
581.83	830.50
581.95	923.00
582.08	932.50
582.20	905.50
582.33	911.00
582.45	883.50
582.58	902.00
582.70	937.50
582.83	888.00
582.95	916.00
583.08	945.00
583.21	950.50
583.33	916.50
583.46	880.50
583.58	862.50
583.71	924.50
583.83	921.00
583.96	919.50
584.08	933.50
584.21	931.50
584.33	930.00
584.46	893.50
584.58	867.00
584.71	944.50
584.83	944.00
584.96	915.00
585.08	884.00
585.21	1019.50
585.33	974.50
585.46	945.50
585.58	947.50
585.71	898.50
585.83	927.00
585.96	937.00
586.08	918.50
586.21	936.50
586.33	946.50
586.46	875.00
586.59	949.00
586.71	896.50
586.84	930.00
586.96	926.00
587.09	865.50
587.21	894.50
587.34	957.00
587.46	904.00
587.59	873.50
587.71	903.50
587.84	904.00
587.96	852.00
588.09	871.00
588.21	938.50
588.34	899.00
588.46	928.50
588.59	897.00
588.71	931.50
588.84	923.00
588.96	911.00
589.09	994.50
589.21	916.50
589.34	885.00
589.46	913.00
589.59	919.00
589.71	975.50
589.84	883.00
589.96	891.00
590.09	918.00
590.21	945.50
590.34	923.50
590.46	923.50
590.59	893.00
590.71	913.00
590.84	960.50
590.96	885.00
591.09	930.50
591.21	932.00
591.34	900.50
591.46	899.50
591.59	975.50
591.71	938.50
591.83	899.50
591.96	862.00
592.08	902.00
592.21	949.00
592.33	916.50
592.46	894.00
592.58	925.50
592.71	959.00
592.83	1000.00
592.96	942.00
593.08	962.50
593.21	875.50
593.33	878.50
593.46	905.00
593.58	907.50
593.71	963.00
593.83	982.00
593.96	894.50
594.08	1017.50
594.21	912.50
594.33	897.50
594.46	886.00
594.58	871.00
594.71	858.50
594.83	924.50
594.96	916.00
595.08	1077.50
595.20	946.50
595.33	933.00
595.45	889.50
595.58	1007.50
595.70	945.00
595.83	890.00
595.95	913.00
596.08	933.00
596.20	878.50
596.33	857.50
596.45	910.50
596.58	875.50
596.70	873.50
596.83	897.00
596.95	905.00
597.08	923.00
597.20	878.00
597.32	898.50
597.45	929.50
597.57	913.50
597.70	948.00
597.82	905.00
597.95	909.00
598.07	922.50
598.20	924.50
598.32	914.00
598.45	899.00
598.57	959.00
598.70	992.50
598.82	907.00
598.94	911.50
599.07	977.00
599.19	915.00
599.32	894.50
599.44	825.50
599.57	955.00
599.69	932.00
599.82	905.00
599.94	881.00
600.07	967.50
600.19	950.50
600.31	901.00
600.44	963.00
600.56	1031.00
600.69	1019.00
600.81	904.00
600.94	917.50
601.06	915.00
601.19	947.00
601.31	957.00
601.44	890.00
601.56	975.00
601.68	958.50
601.81	938.50
601.93	929.00
602.06	948.50
602.18	884.50
602.31	900.00
602.43	966.50
602.56	956.50
602.68	921.00
602.80	918.50
602.93	929.00
603.05	890.50
603.18	933.50
603.30	895.50
603.43	898.00
603.55	913.00
603.68	937.50
603.80	937.50
603.92	923.00
604.05	899.50
604.17	897.50
604.30	877.50
604.42	903.00
604.55	906.00
604.67	949.50
604.79	916.00
604.92	913.50
605.04	893.50
605.17	910.50
605.29	902.50
605.42	902.00
605.54	977.50
605.66	912.50
605.79	937.00
605.91	909.50
606.04	914.00
606.16	902.00
606.29	932.50
606.41	881.00
606.53	922.50
606.66	878.00
606.78	912.00
606.91	908.00
607.03	907.50
607.16	898.50
607.28	892.00
607.40	912.00
607.53	942.50
607.65	893.00
607.78	881.50
607.90	922.00
608.03	1025.00
608.15	928.50
608.27	943.50
608.40	869.00
608.52	926.00
608.65	918.50
608.77	947.00
608.89	912.50
609.02	1002.50
609.14	1007.00
609.27	954.50
609.39	960.50
609.52	913.50
609.64	867.00
609.76	894.00
609.89	906.00
610.01	988.00
610.14	963.50
610.26	907.50
610.38	885.00
610.51	955.50
610.63	902.00
610.76	878.00
610.88	950.50
611.01	988.00
611.13	1037.00
611.25	951.50
611.38	889.50
611.50	925.00
611.63	944.50
611.75	932.50
611.87	932.00
612.00	904.00
612.12	992.50
612.25	905.50
612.37	883.00
612.49	988.00
612.62	979.00
612.74	989.00
612.87	920.50
612.99	938.00
613.11	870.50
613.24	909.50
613.36	904.00
613.49	938.00
613.61	932.50
613.73	905.50
613.86	949.50
613.98	891.50
614.11	978.50
614.23	959.50
614.35	976.00
614.48	988.00
614.60	935.00
614.72	936.00
614.85	936.00
614.97	945.00
615.10	940.50
615.22	919.00
615.34	929.50
615.47	977.00
615.59	910.50
615.72	922.00
615.84	939.00
615.96	901.50
616.09	1020.00
616.21	930.00
616.34	916.00
616.46	928.50
616.58	964.50
616.71	948.50
616.83	964.00
616.95	955.50
617.08	956.00
617.20	927.00
617.33	892.50
617.45	925.50
617.57	948.00
617.70	939.50
617.82	915.00
617.95	952.00
618.07	1002.50
618.19	950.00
618.32	948.50
618.44	907.50
618.56	886.50
618.69	854.50
618.81	873.00
618.94	961.00
619.06	922.00
619.18	922.50
619.31	894.00
619.43	903.50
619.55	957.50
619.68	946.50
619.80	904.00
619.92	947.00
620.05	1063.50
620.17	982.50
620.30	925.00
620.42	970.50
620.54	976.50
620.67	912.00
620.79	931.50
620.91	954.50
621.04	998.00
621.16	920.00
621.29	913.50
621.41	892.00
621.53	921.00
621.66	923.50
621.78	914.50
621.90	973.50
622.03	1035.50
622.15	935.00
622.27	922.50
622.40	954.00
622.52	916.50
622.64	912.00
622.77	877.50
622.89	948.00
623.02	975.00
623.14	945.50
623.26	959.50
623.39	954.00
623.51	985.50
623.63	924.50
623.76	904.00
623.88	1006.00
624.00	925.00
624.13	910.00
624.25	903.50
624.37	888.50
624.50	981.00
624.62	954.00
624.75	906.00
624.87	898.00
624.99	963.50
625.12	913.00
625.24	913.50
625.36	1011.50
625.49	965.00
625.61	945.00
625.73	946.50
625.86	968.50
625.98	920.00
626.10	899.50
626.23	878.50
626.35	953.50
626.47	909.00
626.60	889.50
626.72	906.00
626.84	914.00
626.97	949.50
627.09	923.50
627.21	933.50
627.34	1044.50
627.46	1025.00
627.58	934.00
627.71	936.50
627.83	974.50
627.95	900.00
628.08	933.50
628.20	935.50
628.32	870.00
628.45	848.00
628.57	877.00
628.69	905.00
628.82	961.50
628.94	1005.00
629.06	938.00
629.19	919.50
629.31	973.00
629.43	903.50
629.56	950.50
629.68	928.00
629.80	969.00
629.93	895.50
630.05	906.50
630.17	894.00
630.30	913.00
630.42	904.00
630.54	954.50
630.67	938.00
630.79	914.50
630.91	1050.50
631.04	940.00
631.16	943.00
631.28	955.50
631.41	918.00
631.53	893.00
631.65	924.00
631.78	951.50
631.90	931.00
632.02	935.00
632.14	857.00
632.27	992.00
632.39	936.50
632.51	927.00
632.64	976.00
632.76	946.00
632.88	927.50
633.01	958.00
633.13	938.50
633.25	951.50
633.38	1048.50
633.50	886.00
633.62	880.50
633.75	879.50
633.87	864.00
633.99	945.00
634.11	890.50
634.24	932.00
634.36	940.00
634.48	932.50
634.61	920.00
634.73	973.00
634.85	918.50
634.98	916.00
635.10	922.00
635.22	949.50
635.35	1059.50
635.47	944.50
635.59	929.00
635.71	950.50
635.84	983.00
635.96	913.00
636.08	975.50
636.21	927.00
636.33	963.00
636.45	934.00
636.58	901.50
636.70	899.50
636.82	951.00
636.94	918.00
637.07	882.50
637.19	974.00
637.31	965.50
637.44	966.50
637.56	899.00
637.68	960.50
637.81	960.00
637.93	953.50
638.05	924.00
638.17	1001.50
638.30	1064.00
638.42	946.50
638.54	919.00
638.67	939.00
638.79	951.00
638.91	905.00
639.03	927.50
639.16	933.00
639.28	935.00
639.40	933.50
639.53	925.00
639.65	970.00
639.77	939.50
639.89	951.00
640.02	949.00
640.14	953.00
640.26	907.00
640.39	969.00
640.51	912.00
640.63	966.50
640.75	989.50
640.88	943.50
641.00	917.50
641.12	915.00
641.24	1025.50
641.37	935.50
641.49	905.00
641.61	1044.00
641.74	917.50
641.86	964.00
641.98	913.50
642.10	954.00
642.23	965.00
642.35	926.00
642.47	950.00
642.60	944.00
642.72	981.00
642.84	896.00
642.96	899.50
643.09	911.50
643.21	902.00
643.33	906.00
643.45	911.50
643.58	996.00
643.70	1023.50
643.82	934.50
643.94	937.00
644.07	947.50
644.19	952.00
644.31	945.00
644.44	950.00
644.56	929.00
644.68	903.50
644.80	917.50
644.93	906.50
645.05	905.00
645.17	955.50
645.29	957.00
645.42	952.00
645.54	960.50
645.66	975.00
645.78	939.50
645.91	930.00
646.03	994.00
646.15	1025.50
646.27	928.00
646.40	953.00
646.52	1002.50
646.64	993.50
646.76	932.50
646.89	896.00
647.01	967.50
647.13	979.00
647.25	984.50
647.38	945.50
647.50	918.50
647.62	991.50
647.74	909.50
647.87	905.00
647.99	953.00
648.11	963.00
648.23	946.00
648.36	905.50
648.48	1017.00
648.60	959.50
648.72	932.50
648.85	905.50
648.97	984.00
649.09	968.50
649.21	932.00
649.34	971.50
649.46	964.50
649.58	971.50
649.70	979.00
649.83	927.00
649.95	1008.50
650.07	997.50
650.19	982.00
650.32	958.00
650.44	1003.00
650.56	974.50
650.68	937.00
650.81	936.50
650.93	947.00
651.05	1016.50
651.17	930.50
651.29	962.00
651.42	941.00
651.54	974.00
651.66	924.00
651.78	923.50
651.91	995.50
652.03	1078.50
652.15	986.00
652.27	930.50
652.40	967.00
652.52	941.50
652.64	957.00
652.76	931.50
652.88	1058.00
653.01	963.00
653.13	921.00
653.25	901.50
653.37	983.00
653.50	991.00
653.62	975.50
653.74	909.50
653.86	1013.50
653.98	993.50
654.11	920.00
654.23	949.50
654.35	948.00
654.47	1066.00
654.60	948.00
654.72	951.00
654.84	925.50
654.96	1006.00
655.08	953.50
655.21	967.50
655.33	945.00
655.45	1001.00
655.57	972.00
655.70	954.50
655.82	1000.50
655.94	1036.50
656.06	1001.00
656.18	919.00
656.31	1028.00
656.43	999.00
656.55	937.00
656.67	949.50
656.79	958.50
656.92	1022.50
657.04	979.50
657.16	946.00
657.28	1080.50
657.40	984.50
657.53	974.50
657.65	943.50
657.77	1016.00
657.89	1026.00
658.01	953.50
658.14	928.00
658.26	987.00
658.38	961.50
658.50	920.50
658.62	924.50
658.75	1101.00
658.87	1016.50
658.99	995.50
659.11	944.00
659.23	1021.50
659.36	1085.00
659.48	1029.50
659.60	994.50
659.72	989.00
659.84	968.50
659.97	989.50
660.09	997.50
660.21	1076.50
660.33	1020.00
660.45	922.00
660.58	902.00
660.70	943.50
660.82	947.00
660.94	918.50
661.06	966.50
661.19	1040.50
661.31	1001.00
661.43	970.00
661.55	961.00
661.67	1005.50
661.80	1036.00
661.92	969.50
662.04	976.50
662.16	984.50
662.28	1036.50
662.40	969.00
662.53	986.50
662.65	1007.50
662.77	942.00
662.89	987.00
663.01	946.50
663.14	967.00
663.26	989.50
663.38	978.50
663.50	938.50
663.62	955.50
663.74	981.00
663.87	950.00
663.99	983.50
664.11	1008.50
664.23	1082.00
664.35	955.50
664.48	945.00
664.60	969.50
664.72	959.00
664.84	932.00
664.96	978.00
665.08	1025.50
665.21	997.00
665.33	1010.00
665.45	917.50
665.57	980.00
665.69	1052.50
665.81	974.50
665.94	946.50
666.06	940.00
666.18	988.50
666.30	967.00
666.42	943.00
666.54	989.50
666.67	1003.50
666.79	941.00
666.91	1017.00
667.03	981.50
667.15	932.00
667.27	962.50
667.40	941.00
667.52	977.50
667.64	1016.50
667.76	961.00
667.88	928.50
668.00	1023.00
668.13	1028.00
668.25	951.50
668.37	944.00
668.49	969.50
668.61	1019.00
668.73	959.00
668.85	986.00
668.98	1011.00
669.10	1007.50
669.22	964.00
669.34	973.50
669.46	1023.00
669.58	966.50
669.71	991.00
669.83	978.50
669.95	978.50
670.07	998.00
670.19	966.50
670.31	967.50
670.43	957.50
670.56	1004.50
670.68	1024.00
670.80	999.50
670.92	983.50
671.04	1049.00
671.16	978.50
671.28	963.00
671.41	980.50
671.53	1029.00
671.65	961.50
671.77	978.00
671.89	1120.00
672.01	1090.50
672.13	1036.00
672.26	963.00
672.38	993.50
672.50	955.50
672.62	996.50
672.74	1001.00
672.86	985.00
672.98	1007.00
673.11	997.00
673.23	988.00
673.35	1058.00
673.47	989.00
673.59	973.50
673.71	950.00
673.83	1017.00
673.96	1104.00
674.08	989.50
674.20	940.00
674.32	985.50
674.44	995.50
674.56	1019.00
674.68	1010.00
674.80	1030.50
674.93	987.50
675.05	981.00
675.17	997.50
675.29	1035.50
675.41	1041.00
675.53	989.00
675.65	972.00
675.77	992.50
675.90	1052.50
676.02	970.50
676.14	974.00
676.26	1073.00
676.38	1106.00
676.50	1003.50
676.62	1026.00
676.74	954.50
676.87	982.50
676.99	1008.00
677.11	1049.50
677.23	1021.50
677.35	1035.00
677.47	944.00
677.59	967.00
677.71	1021.00
677.83	1042.50
677.96	1000.50
678.08	990.50
678.20	1002.00
678.32	984.50
678.44	999.50
678.56	1004.50
678.68	1145.50
678.80	1051.00
678.93	989.00
679.05	1009.50
679.17	1001.00
679.29	1052.00
679.41	1008.00
679.53	967.50
679.65	979.00
679.77	1015.50
679.89	994.00
680.01	1022.50
680.14	1022.00
680.26	930.00
680.38	985.00
680.50	1021.50
680.62	1088.00
680.74	1018.00
680.86	991.50
680.98	1001.50
681.10	1028.00
681.22	1121.00
681.35	984.00
681.47	991.00
681.59	985.00
681.71	1101.50
681.83	1019.50
681.95	977.00
682.07	1061.50
682.19	1031.00
682.31	982.50
682.43	955.50
682.56	1043.50
682.68	975.50
682.80	980.50
682.92	1034.50
683.04	1017.00
683.16	995.50
683.28	981.00
683.40	1042.50
683.52	1012.50
683.64	1032.00
683.76	970.00
683.89	991.00
684.01	1005.00
684.13	1058.00
684.25	1012.00
684.37	1024.50
684.49	1040.00
684.61	986.00
684.73	1003.50
684.85	1000.50
684.97	992.50
685.09	1080.50
685.21	966.50
685.34	1008.00
685.46	1137.00
685.58	1039.00
685.70	1019.50
685.82	1050.00
685.94	997.50
686.06	984.50
686.18	977.50
686.30	998.00
686.42	970.50
686.54	1069.00
686.66	979.00
686.79	1078.50
686.91	1037.50
687.03	1126.00
687.15	1047.50
687.27	1016.00
687.39	1015.50
687.51	1086.00
687.63	1035.00
687.75	1067.00
687.87	1034.50
687.99	1102.00
688.11	991.00
688.23	1036.50
688.35	1070.00
688.48	1056.00
688.60	984.00
688.72	1007.00
688.84	1027.00
688.96	1060.00
689.08	1019.50
689.20	1010.50
689.32	1134.00
689.44	1029.50
689.56	964.50
689.68	997.50
689.80	1001.50
689.92	988.00
690.04	1003.50
690.16	1044.00
690.28	1040.00
690.41	1039.00
690.53	988.50
690.65	1059.50
690.77	1066.50
690.89	1073.00
691.01	1017.50
691.13	998.50
691.25	990.50
691.37	1011.50
691.49	971.50
691.61	973.00
691.73	1091.00
691.85	1021.50
691.97	1006.00
692.09	990.00
692.21	1058.00
692.33	1096.00
692.45	1036.00
692.57	1006.50
692.70	1039.50
692.82	1043.50
692.94	962.00
693.06	996.50
693.18	1029.00
693.30	1002.00
693.42	987.50
693.54	1026.50
693.66	1050.00
693.78	1055.50
693.90	1026.00
694.02	1031.50
694.14	1052.50
694.26	1015.00
694.38	1053.50
694.50	1043.00
694.62	1052.50
694.74	998.00
694.86	994.00
694.98	1024.00
695.10	1042.50
695.22	1090.50
695.34	1006.00
695.46	1014.00
695.58	1021.50
695.71	1044.50
695.83	1008.50
695.95	1008.00
696.07	1088.00
696.19	1005.50
696.31	1007.00
696.43	979.00
696.55	1123.00
696.67	1038.50
696.79	1017.00
696.91	1027.00
697.03	1022.50
697.15	1114.00
697.27	1048.50
697.39	1020.50
697.51	1072.50
697.63	986.50
697.75	1003.00
697.87	1023.50
697.99	977.50
698.11	957.50
698.23	983.50
698.35	1003.50
698.47	1014.50
698.59	1052.00
698.71	1023.50
698.83	1067.50
698.95	999.00
699.07	1047.00
699.19	1026.00
699.31	1014.50
699.43	1000.00
699.55	1061.50
699.67	1016.00
699.79	1032.50
699.91	1024.00
700.03	1035.50
700.15	1047.50
700.27	997.00
700.39	1026.50
700.51	997.50
700.63	1022.50
700.75	1015.00
700.87	1052.50
700.99	1018.00
701.11	1053.00
701.24	1034.50
701.36	1072.50
701.48	1067.00
701.60	1063.50
701.72	1003.50
701.84	1097.00
701.96	1055.50
702.08	1035.50
702.20	1119.00
702.32	1074.00
702.44	1068.50
702.56	1034.00
702.68	1015.50
702.80	1052.50
702.92	1130.50
703.04	1089.00
703.16	1036.00
703.28	1057.00
703.40	1020.00
703.52	1051.00
703.64	1058.00
703.76	1065.00
703.88	1028.00
704.00	1011.00
704.12	1022.00
704.24	1081.00
704.36	1056.50
704.48	1060.50
704.60	1003.50
704.72	1039.50
704.84	1032.00
704.96	1071.50
705.07	1055.50
705.19	1010.50
705.31	1039.50
705.43	1083.50
705.55	1024.00
705.67	1065.50
705.79	1041.00
705.91	985.00
706.03	1037.50
706.15	1041.00
706.27	1046.50
706.39	1036.00
706.51	1008.00
706.63	1031.50
706.75	1078.00
706.87	1059.00
706.99	1108.50
707.11	1055.50
707.23	1041.00
707.35	1068.50
707.47	1051.00
707.59	1078.00
707.71	1091.00
707.83	1021.00
707.95	1087.00
708.07	1044.50
708.19	1176.00
708.31	1063.00
708.43	1009.00
708.55	1071.50
708.67	1099.50
708.79	1060.50
708.91	1088.00
709.03	1065.50
709.15	1100.50
709.27	1016.50
709.39	1047.00
709.51	1055.00
709.63	1065.50
709.75	1075.50
709.87	1002.50
709.99	1090.50
710.11	1025.50
710.23	1035.00
710.35	1005.00
710.47	1162.50
710.58	1099.50
710.70	1092.00
710.82	1105.00
710.94	1060.50
711.06	1054.50
711.18	1062.00
711.30	1041.00
711.42	1078.00
711.54	1049.50
711.66	1074.00
711.78	1031.00
711.90	1087.50
712.02	1134.50
712.14	1033.50
712.26	1002.50
712.38	1099.50
712.50	1125.50
712.62	1046.50
712.74	1035.00
712.86	1034.50
712.98	1124.00
713.10	1042.00
713.22	1024.00
713.34	1063.50
713.45	1033.50
713.57	1081.00
713.69	1026.50
713.81	1041.50
713.93	1062.00
714.05	1037.50
714.17	998.00
714.29	1119.50
714.41	1111.50
714.53	1046.00
714.65	1081.50
714.77	1062.00
714.89	1025.50
715.01	1120.00
715.13	1043.50
715.25	1087.50
715.37	1041.00
715.49	1022.50
715.61	1070.00
715.72	1077.50
715.84	1101.50
715.96	1044.00
716.08	1056.50
716.20	1133.00
716.32	1112.50
716.44	1058.50
716.56	1050.50
716.68	1071.50
716.80	1147.50
716.92	1119.50
717.04	1073.00
717.16	1082.50
717.28	1066.50
717.40	1054.00
717.52	1052.50
717.63	1045.50
717.75	1068.50
717.87	1077.50
717.99	1089.50
718.11	1058.50
718.23	1132.00
718.35	1083.50
718.47	1068.50
718.59	1012.00
718.71	1058.00
718.83	1045.50
718.95	1089.50
719.07	1027.00
719.19	1058.00
719.30	1050.50
719.42	1083.00
719.54	1070.00
719.66	1077.00
719.78	1068.00
719.90	1015.00
720.02	1065.50
720.14	1079.50
720.26	1102.00
720.38	1090.00
720.50	1054.00
720.62	1001.00
720.74	1078.00
720.85	1075.00
720.97	1129.50
721.09	1174.50
721.21	1060.50
721.33	1122.00
721.45	1073.00
721.57	1106.00
721.69	1039.00
721.81	1015.50
721.93	1140.00
722.05	1082.00
722.16	1032.00
722.28	1006.50
722.40	1045.50
722.52	1147.00
722.64	1127.00
722.76	1034.50
722.88	1095.50
723.00	1104.50
723.12	1041.00
723.24	1081.00
723.36	1008.50
723.47	1112.00
723.59	1080.00
723.71	1052.00
723.83	1093.00
723.95	1057.00
724.07	1089.50
724.19	1086.50
724.31	1157.00
724.43	1034.00
724.55	1010.00
724.66	1044.50
724.78	1210.50
724.90	1052.50
725.02	1047.00
725.14	1053.00
725.26	1077.50
725.38	999.50
725.50	1060.50
725.62	1086.50
725.74	1066.00
725.85	1076.50
725.97	1084.50
726.09	1126.00
726.21	1404.50
726.33	1116.50
726.45	1082.50
726.57	1048.50
726.69	1094.00
726.81	1087.50
726.92	1075.50
727.04	1086.00
727.16	1101.50
727.28	1067.00
727.40	1074.00
727.52	1083.00
727.64	1212.00
727.76	1174.00
727.88	1109.00
727.99	1041.00
728.11	1048.00
728.23	1074.00
728.35	1055.50
728.47	1057.50
728.59	1056.50
728.71	1094.50
728.83	1098.00
728.94	1118.00
729.06	1183.00
729.18	1155.50
729.30	1102.00
729.42	1086.00
729.54	1172.50
729.66	1171.50
729.78	1082.00
729.90	1093.50
730.01	1068.50
730.13	1004.00
730.25	1078.50
730.37	1070.50
730.49	1098.50
730.61	1109.50
730.73	1110.00
730.84	1115.50
730.96	1110.00
731.08	1114.00
731.20	1093.00
731.32	1085.00
731.44	1227.50
731.56	1086.00
731.68	1058.00
731.79	1101.00
731.91	1053.50
732.03	1078.00
732.15	1081.00
732.27	1038.50
732.39	1071.00
732.51	1115.50
732.62	1061.50
732.74	1076.00
732.86	1134.50
732.98	1094.50
733.10	1075.00
733.22	1101.50
733.34	1117.50
733.45	1031.50
733.57	1084.00
733.69	1046.50
733.81	1084.50
733.93	1113.00
734.05	1027.50
734.17	1079.50
734.28	1079.00
734.40	1093.00
734.52	1066.50
734.64	1080.00
734.76	1165.00
734.88	1100.50
735.00	1049.50
735.11	1086.50
735.23	1130.00
735.35	1072.50
735.47	1051.50
735.59	1124.00
735.71	1071.50
735.83	1090.00
735.94	1112.50
736.06	1100.00
736.18	1147.50
736.30	1134.00
736.42	1119.50
736.54	1102.50
736.65	1132.50
736.77	1249.00
736.89	1140.00
737.01	1102.50
737.13	1210.50
737.25	1037.50
737.36	1051.00
737.48	1067.00
737.60	1097.50
737.72	1069.00
737.84	1087.00
737.96	1153.00
738.08	1096.50
738.19	1197.50
738.31	1075.00
738.43	1107.50
738.55	1086.50
738.67	1092.00
738.79	1090.00
738.90	1091.00
739.02	1106.00
739.14	1075.50
739.26	1102.50
739.38	1093.50
739.50	1110.50
739.61	1108.50
739.73	1108.50
739.85	1084.50
739.97	1107.50
740.09	1158.00
740.20	1063.00
740.32	1111.50
740.44	1124.50
740.56	1061.00
740.68	1086.00
740.80	1096.00
740.91	1093.50
741.03	1146.50
741.15	1130.00
741.27	1084.00
741.39	1132.00
741.51	1110.50
741.62	1149.50
741.74	1112.00
741.86	1102.50
741.98	1085.50
742.10	1118.00
742.21	1112.50
742.33	1094.50
742.45	1065.50
742.57	1155.00
742.69	1074.50
742.80	1148.00
742.92	1110.50
743.04	1100.50
743.16	1079.50
743.28	1162.50
743.40	1052.50
743.51	1070.50
743.63	1061.50
743.75	1115.50
743.87	1114.00
743.99	1126.50
744.10	1099.50
744.22	1109.50
744.34	1082.50
744.46	1125.00
744.58	1110.50
744.69	1037.50
744.81	1115.00
744.93	1056.50
745.05	1051.50
745.17	1181.00
745.28	1172.50
745.40	1120.50
745.52	1093.50
745.64	1113.00
745.76	1147.50
745.87	1109.50
745.99	1073.50
746.11	1105.00
746.23	1072.50
746.35	1088.50
746.46	1064.50
746.58	1213.00
746.70	1131.00
746.82	1116.00
746.94	1096.00
747.05	1081.50
747.17	1061.00
747.29	1044.00
747.41	1077.50
747.53	1226.50
747.64	1088.00
747.76	1153.50
747.88	1155.50
748.00	1145.50
748.12	1109.00
748.23	1102.50
748.35	1118.00
748.47	1148.00
748.59	1145.00
748.70	1071.50
748.82	1059.50
748.94	1074.50
749.06	1084.50
749.18	1091.50
749.29	1064.50
749.41	1130.00
749.53	1113.50
749.65	1078.00
749.76	1148.50
749.88	1107.50
750.00	1117.50
750.12	1145.50
750.24	1118.50
750.35	1108.00
750.47	1058.50
750.59	1119.50
750.71	1082.50
750.82	1138.00
750.94	1083.00
751.06	1095.00
751.18	1075.50
751.30	1140.00
751.41	1153.00
751.53	1140.50
751.65	1073.50
751.77	1095.50
751.88	1121.00
752.00	1157.00
752.12	1062.00
752.24	1141.00
752.35	1124.50
752.47	1142.00
752.59	1144.00
752.71	1183.00
752.83	1099.50
752.94	1154.00
753.06	1077.50
753.18	1117.00
753.30	1092.00
753.41	1045.00
753.53	1081.50
753.65	1080.50
753.77	1173.50
753.88	1075.50
754.00	1116.50
754.12	1110.00
754.24	1177.00
754.35	1077.00
754.47	1041.00
754.59	1128.00
754.71	1134.00
754.82	1097.00
754.94	1084.00
755.06	1174.00
755.18	1131.50
755.29	1125.00
755.41	1097.00
755.53	1140.00
755.65	1077.00
755.76	1130.50
755.88	1107.50
756.00	1173.00
756.12	1098.00
756.23	1009.50
756.35	1062.50
756.47	1147.50
756.59	1095.50
756.70	1074.00
756.82	1088.50
756.94	1084.50
757.06	1122.00
757.17	1139.00
757.29	1102.00
757.41	1039.00
757.53	1122.00
757.64	1106.00
757.76	1096.00
757.88	1122.50
758.00	1131.00
758.11	1085.50
758.23	1065.00
758.35	1119.50
758.47	1068.50
758.58	1121.50
758.70	1055.50
758.82	1090.00
758.94	1069.50
759.05	1095.50
759.17	1040.00
759.29	1077.00
759.40	1178.50
759.52	1089.00
759.64	1084.50
759.76	1101.50
759.87	1121.50
759.99	1111.00
760.11	1096.50
760.23	1113.50
760.34	1152.00
760.46	1133.00
760.58	1089.00
760.70	1106.00
760.81	1154.00
760.93	1115.00
761.05	1128.50
761.16	1101.00
761.28	1078.00
761.40	1079.00
761.52	1065.50
761.63	1153.00
761.75	1103.00
761.87	1089.00
761.98	1065.50
762.10	1129.50
762.22	1097.50
762.34	1134.50
762.45	1087.00
762.57	1130.50
762.69	1231.50
762.81	1100.00
762.92	1113.50
763.04	1053.00
763.16	1124.50
763.27	1119.50
763.39	1082.50
763.51	1127.00
763.63	1144.50
763.74	1068.50
763.86	1044.00
763.98	1086.00
764.09	1081.00
764.21	1100.50
764.33	1058.00
764.44	1070.00
764.56	1110.50
764.68	1058.50
764.80	1085.50
764.91	1027.50
765.03	1158.00
765.15	1097.00
765.26	1074.50
765.38	1063.50
765.50	1144.00
765.62	1098.50
765.73	1094.50
765.85	1118.50
765.97	1041.50
766.08	1103.00
766.20	1109.00
766.32	1099.50
766.43	1138.50
766.55	1124.50
766.67	1086.00
766.79	1077.00
766.90	1073.00
767.02	1027.50
767.14	1049.00
767.25	1054.50
767.37	1194.00
767.49	1110.00
767.60	1076.00
767.72	1137.00
767.84	1128.00
767.95	1080.50
768.07	1061.00
768.19	1118.50
768.31	1121.00
768.42	1097.50
768.54	1079.50
768.66	1079.00
768.77	1128.00
768.89	1101.50
769.01	1070.00
769.12	1120.00
769.24	1109.50
769.36	1054.50
769.47	1057.50
769.59	1056.00
769.71	1111.50
769.82	1070.50
769.94	1081.50
770.06	1055.50
770.17	1136.50
770.29	1110.50
770.41	1129.50
770.53	1116.00
770.64	1039.50
770.76	1075.50
770.88	1116.00
770.99	1123.00
771.11	1054.00
771.23	1104.00
771.34	1093.00
771.46	1187.00
771.58	1142.00
771.69	1123.50
771.81	1098.50
771.93	1116.00
772.04	1056.00
772.16	1108.50
772.28	1083.50
772.39	1149.50
772.51	1096.50
772.63	1117.00
772.74	1081.00
772.86	1072.00
772.98	1206.50
773.09	1059.50
773.21	1063.50
773.33	1101.00
773.44	1114.00
773.56	1078.50
773.68	1078.00
773.79	1122.00
773.91	1070.50
774.03	1085.50
774.14	1070.00
774.26	1140.00
774.38	1056.50
774.49	1049.50
774.61	1087.50
774.73	1084.50
774.84	1079.00
774.96	1052.50
775.08	1087.00
775.19	1110.50
775.31	1149.00
775.43	1089.00
775.54	1072.00
775.66	1024.50
775.77	1128.50
775.89	1063.00
776.01	1108.50
776.12	1131.00
776.24	1101.00
776.36	1038.50
776.47	1048.50
776.59	1088.00
776.71	1136.00
776.82	1015.50
776.94	1036.00
777.06	1072.00
777.17	1139.50
777.29	1038.00
777.41	1064.00
777.52	1100.50
777.64	1092.00
777.75	1112.00
777.87	1028.00
777.99	1056.00
778.10	1122.50
778.22	1058.50
778.34	1083.50
778.45	1071.00
778.57	1143.50
778.69	1121.00
778.80	1097.00
778.92	1168.50
779.04	1091.50
779.15	1072.50
779.27	1106.00
779.38	1116.00
779.50	1135.50
779.62	1019.00
779.73	1077.50
779.85	1015.00
779.97	1181.50
780.08	1080.00
780.20	1064.00
780.31	1092.50
780.43	1109.00
780.55	1055.50
780.66	1084.00
780.78	1094.50
780.90	1187.50
781.01	1057.00
781.13	1078.50
781.25	1061.50
781.36	1136.50
781.48	1035.00
781.59	1063.00
781.71	1106.50
781.83	1096.00
781.94	1047.00
782.06	1057.00
782.18	1116.50
782.29	1071.50
782.41	1019.00
782.52	1109.00
782.64	1139.50
782.76	1089.50
782.87	1093.00
782.99	1059.00
783.10	1207.00
783.22	1219.50
783.34	1075.00
783.45	1078.50
783.57	1090.50
783.69	1050.00
783.80	1081.00
783.92	1090.00
784.03	1077.50
784.15	1047.00
784.27	1069.50
784.38	1039.50
784.50	1071.00
784.61	1088.50
784.73	1029.00
784.85	1046.50
784.96	1048.00
785.08	1120.00
785.19	1094.50
785.31	1063.50
785.43	1028.00
785.54	1033.50
785.66	1093.50
785.77	1074.00
785.89	1090.50
786.01	1024.50
786.12	1057.00
786.24	1076.00
786.35	1141.50
786.47	1077.50
786.59	1046.50
786.70	1029.00
786.82	1068.50
786.93	1086.00
787.05	1053.50
787.17	1087.00
787.28	1065.00
787.40	1087.00
787.51	1078.00
787.63	1085.00
787.75	1025.50
787.86	1092.50
787.98	1100.50
788.09	1052.50
788.21	1092.50
788.33	1106.50
788.44	1080.00
788.56	1041.50
788.67	1086.50
788.79	1043.00
788.91	1070.50
789.02	1040.00
789.14	1051.50
789.25	1142.00
789.37	1102.00
789.48	1040.00
789.60	1079.50
789.72	1038.00
789.83	1081.50
789.95	1066.00
790.06	1010.50
790.18	1039.00
790.30	1084.00
790.41	1057.00
790.53	1033.50
790.64	1001.50
790.76	1019.50
790.87	1049.00
790.99	1057.00
791.11	1060.00
791.22	1041.00
791.34	1052.50
791.45	1078.00
791.57	1079.50
791.68	1053.00
791.80	1044.50
791.92	1090.00
792.03	1028.50
792.15	1007.50
792.26	1013.50
792.38	1005.00
792.49	1072.50
792.61	1019.50
792.73	1060.00
792.84	1059.00
792.96	1157.50
793.07	1048.00
793.19	1857.50
793.30	1144.50
793.42	1071.50
793.54	984.00
793.65	1004.50
793.77	1204.50
793.88	1069.50
794.00	1003.00
794.11	1037.00
794.23	989.00
794.34	1053.00
794.46	986.50
794.58	991.50
794.69	1130.50
794.81	1136.00
794.92	1020.50
795.04	1004.00
795.15	1127.00
795.27	1096.50
795.39	1036.50
795.50	1029.50
795.62	1035.50
795.73	1023.00
795.85	1022.00
795.96	1071.00
796.08	1117.50
796.19	1015.00
796.31	1015.50
796.42	1001.50
796.54	1024.50
796.66	1100.50
796.77	1000.00
796.89	999.00
797.00	1079.50
797.12	965.00
797.23	1029.50
797.35	1055.00
797.46	1071.50
797.58	1094.50
797.69	1053.00
797.81	1028.00
797.93	1031.50
798.04	1008.00
798.16	1010.50
798.27	1048.00
798.39	1006.00
798.50	1001.50
798.62	985.00
798.73	993.00
798.85	1110.00
798.96	1045.00
799.08	1068.00
799.19	1072.00
799.31	1045.00
799.43	1043.00
799.54	1022.00
799.66	1035.50
799.77	1089.00
799.89	1002.50
800.00	964.50
800.12	1011.50
800.23	1078.00
800.35	1111.50
800.46	973.00
800.58	961.00
800.69	1036.50
800.81	995.00
800.92	978.00
801.04	1024.00
801.16	959.50
801.27	974.00
801.39	981.00
801.50	997.50
801.62	1020.50
801.73	1078.50
801.85	1060.00
801.96	980.50
802.08	1085.50
802.19	1069.50
802.31	1008.00
802.42	1025.50
802.54	1103.00
802.65	1070.50
802.77	987.00
802.88	1057.00
803.00	978.50
803.11	1127.00
803.23	1032.00
803.34	1025.50
803.46	1050.00
803.57	981.50
803.69	1042.50
803.80	978.00
803.92	1066.50
804.03	1016.50
804.15	1032.50
804.26	1041.50
804.38	1051.50
804.50	998.50
804.61	1034.00
804.73	1018.00
804.84	1029.00
804.96	961.50
805.07	1006.50
805.19	975.50
805.30	1036.50
805.42	1070.00
805.53	1010.50
805.65	982.50
805.76	959.50
805.88	1004.50
805.99	1024.50
806.11	1042.00
806.22	990.50
806.34	1007.50
806.45	1016.50
806.57	1000.50
806.68	1050.50
806.80	942.50
806.91	984.50
807.03	965.50
807.14	937.00
807.26	956.50
807.37	948.50
807.49	1004.50
807.60	971.00
807.72	1064.00
807.83	1079.50
807.95	1027.50
808.06	1025.50
808.17	999.50
808.29	1033.00
808.40	943.50
808.52	999.50
808.63	992.00
808.75	990.50
808.86	985.00
808.98	1007.00
809.09	967.50
809.21	993.00
809.32	969.00
809.44	1008.00
809.55	952.50
809.67	987.50
809.78	949.50
809.90	1009.50
810.01	1059.50
810.13	952.00
810.24	997.00
810.36	927.00
810.47	946.00
810.59	966.50
810.70	993.50
810.82	1019.00
810.93	927.00
811.05	932.50
811.16	952.50
811.27	925.50
811.39	975.00
811.50	997.00
811.62	909.00
811.73	896.50
811.85	973.00
811.96	955.50
812.08	977.00
812.19	963.00
812.31	983.00
812.42	955.50
812.54	928.00
812.65	1007.50
812.77	997.00
812.88	990.00
813.00	1000.50
813.11	965.00
813.22	927.50
813.34	940.50
813.45	960.00
813.57	1044.00
813.68	1039.00
813.80	947.50
813.91	912.50
814.03	942.00
814.14	1029.00
814.26	927.00
814.37	952.50
814.49	939.00
814.60	928.50
814.71	914.00
814.83	931.50
814.94	884.50
815.06	934.50
815.17	934.00
815.29	925.00
815.40	883.00
815.52	1021.00
815.63	926.00
815.75	905.00
815.86	942.50
815.97	891.00
816.09	920.50
816.20	934.00
816.32	947.50
816.43	880.00
816.55	926.50
816.66	904.00
816.78	1009.50
816.89	916.50
817.00	914.50
817.12	892.50
817.23	891.50
817.35	949.50
817.46	918.00
817.58	884.00
817.69	1025.50
817.81	914.00
817.92	949.00
818.03	915.50
818.15	920.00
818.26	871.50
818.38	866.00
818.49	894.50
818.61	932.00
818.72	866.00
818.83	2252.50
818.95	1076.00
819.06	878.00
819.18	889.00
819.29	909.50
819.41	903.50
819.52	911.00
819.64	916.50
819.75	872.50
819.86	848.50
819.98	877.00
820.09	914.50
820.21	890.00
820.32	845.50
820.44	912.50
820.55	971.00
820.66	864.00
820.78	921.00
820.89	892.00
821.01	908.50
821.12	883.50
821.23	900.50
821.35	863.50
821.46	933.50
821.58	889.00
821.69	860.50
821.81	850.00
821.92	937.00
822.03	880.50
822.15	880.50
822.26	837.50
822.38	840.00
822.49	887.00
822.61	884.50
822.72	886.00
822.83	924.00
822.95	861.00
823.06	870.00
823.18	908.50
823.29	947.50
823.40	904.50
823.52	854.50
823.63	824.50
823.75	962.50
823.86	866.50
823.97	798.50
824.09	881.50
824.20	816.00
824.32	861.00
824.43	851.00
824.55	884.50
824.66	955.00
824.77	859.00
824.89	866.50
825.00	922.00
825.12	860.00
825.23	881.50
825.34	794.00
825.46	827.00
825.57	885.00
825.69	832.00
825.80	781.50
825.91	820.50
826.03	803.50
826.14	871.50
826.26	823.50
826.37	852.00
826.48	833.00
826.60	852.00
826.71	810.50
826.83	856.00
826.94	846.50
827.05	881.50
827.17	870.50
827.28	834.50
827.39	825.00
827.51	801.50
827.62	842.00
827.74	841.50
827.85	823.50
827.96	829.00
828.08	836.00
828.19	933.00
828.31	826.50
828.42	778.50
828.53	864.00
828.65	881.00
828.76	896.00
828.87	862.50
828.99	796.50
