Wavelength (nm)	Intensity
377.35	806.50
377.48	606.50
377.62	610.25
377.75	607.25
377.88	837.25
378.02	818.25
378.15	815.75
378.28	787.75
378.41	861.75
378.55	835.00
378.68	810.75
378.81	793.50
378.95	825.50
379.08	812.00
379.21	787.50
379.35	833.75
379.48	851.25
379.61	903.25
379.74	815.25
379.88	799.25
380.01	869.75
380.14	934.50
380.28	856.75
380.41	782.50
380.54	838.00
380.68	849.00
380.81	766.50
380.94	854.25
381.07	895.50
381.21	891.00
381.34	809.50
381.47	761.00
381.61	971.50
381.74	826.50
381.87	783.75
382.00	838.75
382.14	914.25
382.27	859.00
382.40	790.75
382.54	872.50
382.67	887.00
382.80	788.00
382.93	793.00
383.07	812.00
383.20	818.75
383.33	858.50
383.47	795.75
383.60	773.00
383.73	969.25
383.86	854.75
384.00	806.50
384.13	805.25
384.26	861.75
384.40	876.75
384.53	812.75
384.66	857.00
384.79	843.75
384.93	800.25
385.06	808.50
385.19	832.75
385.33	943.75
385.46	854.75
385.59	790.75
385.72	832.75
385.86	780.75
385.99	810.50
386.12	809.75
386.25	780.50
386.39	875.00
386.52	879.25
386.65	813.00
386.79	808.25
386.92	808.75
387.05	901.25
387.18	773.75
387.32	788.25
387.45	861.25
387.58	827.75
387.71	805.00
387.85	793.50
387.98	845.50
388.11	852.00
388.25	831.75
388.38	811.50
388.51	851.00
388.64	862.25
388.78	807.00
388.91	781.25
389.04	818.50
389.17	926.00
389.31	827.50
389.44	852.00
389.57	887.25
389.70	852.25
389.84	803.50
389.97	804.00
390.10	801.50
390.24	850.75
390.37	817.75
390.50	801.75
390.63	893.75
390.77	831.00
390.90	824.75
391.03	821.50
391.16	780.25
391.30	808.00
391.43	806.50
391.56	807.75
391.69	792.00
391.83	869.00
391.96	830.25
392.09	805.50
392.22	905.50
392.36	849.00
392.49	797.25
392.62	816.50
392.75	848.00
392.89	893.00
393.02	789.00
393.15	791.25
393.28	779.50
393.42	921.50
393.55	776.25
393.68	808.75
393.81	756.00
393.95	807.00
394.08	796.25
394.21	796.50
394.34	858.25
394.48	854.25
394.61	854.50
394.74	831.25
394.87	866.00
395.01	849.50
395.14	850.75
395.27	792.00
395.40	917.50
395.54	915.50
395.67	823.00
395.80	808.00
395.93	859.25
396.07	810.50
396.20	795.75
396.33	748.50
396.46	805.50
396.59	822.50
396.73	821.00
396.86	787.25
396.99	866.00
397.12	845.75
397.26	830.50
397.39	815.25
397.52	1119.50
397.65	940.75
397.79	831.00
397.92	808.25
398.05	872.50
398.18	807.25
398.32	810.75
398.45	843.50
398.58	849.50
398.71	858.75
398.84	785.00
398.98	812.75
399.11	852.00
399.24	847.75
399.37	806.75
399.51	789.25
399.64	817.25
399.77	825.50
399.90	816.00
400.03	814.00
400.17	780.25
400.30	884.00
400.43	848.75
400.56	826.50
400.70	832.25
400.83	798.00
400.96	794.25
401.09	827.25
401.23	839.75
401.36	889.25
401.49	807.50
401.62	808.00
401.75	813.00
401.89	795.50
402.02	821.25
402.15	817.50
402.28	851.75
402.41	845.00
402.55	804.25
402.68	808.50
402.81	898.50
402.94	872.50
403.08	799.50
403.21	771.00
403.34	859.25
403.47	857.25
403.60	803.75
403.74	849.50
403.87	860.50
404.00	797.00
404.13	801.00
404.26	778.25
404.40	780.25
404.53	837.00
404.66	812.75
404.79	785.25
404.93	860.00
405.06	802.50
405.19	772.50
405.32	825.25
405.45	854.75
405.59	870.00
405.72	822.50
405.85	784.50
405.98	984.50
406.11	786.00
406.25	786.50
406.38	807.50
406.51	844.75
406.64	818.50
406.77	774.25
406.91	773.00
407.04	849.50
407.17	814.75
407.30	834.50
407.43	814.75
407.57	906.25
407.70	882.75
407.83	795.75
407.96	824.25
408.09	781.25
408.23	913.50
408.36	825.00
408.49	800.25
408.62	938.25
408.75	841.50
408.89	800.75
409.02	831.50
409.15	822.75
409.28	898.00
409.41	849.00
409.55	799.00
409.68	944.00
409.81	843.50
409.94	795.75
410.07	826.25
410.20	833.25
410.34	811.25
410.47	817.75
410.60	829.75
410.73	859.00
410.86	793.50
411.00	819.50
411.13	795.00
411.26	840.75
411.39	828.50
411.52	841.75
411.66	812.00
411.79	813.75
411.92	798.50
412.05	815.50
412.18	804.25
412.31	846.50
412.45	856.50
412.58	860.75
412.71	787.75
412.84	844.75
412.97	905.00
413.11	820.50
413.24	825.75
413.37	869.75
413.50	924.75
413.63	840.00
413.76	811.75
413.90	862.00
414.03	814.25
414.16	812.00
414.29	844.00
414.42	828.00
414.56	934.00
414.69	805.00
414.82	822.25
414.95	832.50
415.08	849.25
415.21	818.75
415.35	840.50
415.48	749.50
415.61	876.75
415.74	876.75
415.87	781.00
416.00	841.00
416.14	951.75
416.27	825.25
416.40	803.25
416.53	830.25
416.66	851.50
416.79	831.00
416.93	788.00
417.06	877.00
417.19	836.00
417.32	818.50
417.45	806.50
417.58	778.75
417.72	881.75
417.85	802.75
417.98	817.00
418.11	860.50
418.24	804.75
418.37	809.50
418.51	828.00
418.64	827.50
418.77	909.00
418.90	840.50
419.03	778.50
419.16	842.50
419.29	867.00
419.43	803.00
419.56	786.75
419.69	942.00
419.82	874.25
419.95	822.50
420.08	863.00
420.22	904.25
420.35	944.00
420.48	865.00
420.61	814.00
420.74	776.25
420.87	861.50
421.00	793.25
421.14	811.00
421.27	861.00
421.40	899.50
421.53	853.00
421.66	831.25
421.79	825.25
421.93	825.25
422.06	825.50
422.19	799.25
422.32	878.50
422.45	874.00
422.58	838.00
422.71	807.25
422.85	873.75
422.98	870.50
423.11	780.25
423.24	778.00
423.37	791.25
423.50	803.00
423.63	819.25
423.77	790.75
423.90	801.25
424.03	851.75
424.16	851.50
424.29	821.25
424.42	772.50
424.55	794.50
424.69	788.00
424.82	819.25
424.95	847.25
425.08	794.00
425.21	845.00
425.34	808.25
425.47	830.25
425.60	845.50
425.74	778.00
425.87	807.25
426.00	827.75
426.13	839.50
426.26	786.00
426.39	793.50
426.52	810.75
426.66	898.25
426.79	855.75
426.92	803.25
427.05	930.00
427.18	886.25
427.31	807.75
427.44	813.50
427.57	797.75
427.71	831.75
427.84	781.50
427.97	822.75
428.10	887.00
428.23	824.75
428.36	801.75
428.49	732.50
428.62	958.75
428.76	923.50
428.89	839.25
429.02	783.25
429.15	825.00
429.28	924.00
429.41	796.25
429.54	812.75
429.67	810.50
429.81	856.00
429.94	815.00
430.07	808.25
430.20	872.50
430.33	900.50
430.46	797.75
430.59	792.25
430.72	824.75
430.85	786.25
430.99	815.25
431.12	789.75
431.25	886.50
431.38	900.25
431.51	822.00
431.64	824.00
431.77	904.50
431.90	900.50
432.03	828.00
432.17	800.75
432.30	838.25
432.43	852.25
432.56	819.50
432.69	851.25
432.82	842.75
432.95	890.75
433.08	828.25
433.21	833.50
433.35	819.50
433.48	830.50
433.61	787.50
433.74	819.00
433.87	805.25
434.00	864.50
434.13	805.50
434.26	850.50
434.39	847.75
434.53	859.00
434.66	818.50
434.79	817.25
434.92	808.50
435.05	890.75
435.18	807.25
435.31	846.25
435.44	896.75
435.57	841.00
435.70	824.75
435.84	799.75
435.97	897.00
436.10	942.00
436.23	804.25
436.36	796.25
436.49	815.75
436.62	845.50
436.75	817.00
436.88	849.50
437.01	796.25
437.14	791.50
437.28	767.75
437.41	805.75
437.54	890.75
437.67	864.00
437.80	796.75
437.93	776.25
438.06	946.25
438.19	879.00
438.32	795.00
438.45	799.50
438.58	849.50
438.72	907.00
438.85	858.25
438.98	817.00
439.11	849.50
439.24	900.50
439.37	885.25
439.50	853.75
439.63	880.25
439.76	806.00
439.89	801.50
440.02	805.50
440.15	852.25
440.29	892.75
440.42	824.25
440.55	813.75
440.68	902.00
440.81	957.50
440.94	841.50
441.07	827.50
441.20	931.25
441.33	848.75
441.46	815.00
441.59	802.50
441.72	826.75
441.85	845.50
441.99	866.25
442.12	861.00
442.25	918.00
442.38	859.75
442.51	846.50
442.64	787.75
442.77	837.25
442.90	818.25
443.03	788.50
443.16	805.75
443.29	827.75
443.42	907.00
443.55	812.00
443.68	826.75
443.82	783.50
443.95	811.75
444.08	812.75
444.21	820.25
444.34	807.50
444.47	824.75
444.60	819.75
444.73	831.75
444.86	836.25
444.99	894.50
445.12	852.25
445.25	836.25
445.38	853.25
445.51	880.50
445.64	833.25
445.78	801.50
445.91	773.25
446.04	941.75
446.17	869.75
446.30	770.75
446.43	851.00
446.56	840.50
446.69	805.50
446.82	807.00
446.95	882.00
447.08	879.25
447.21	833.00
447.34	806.50
447.47	886.00
447.60	869.50
447.73	824.00
447.86	852.75
447.99	831.25
448.13	855.00
448.26	858.00
448.39	806.25
448.52	864.75
448.65	871.00
448.78	825.50
448.91	814.75
449.04	860.00
449.17	816.75
449.30	850.00
449.43	826.50
449.56	823.75
449.69	893.75
449.82	822.75
449.95	782.00
450.08	884.00
450.21	866.75
450.34	833.50
450.47	827.50
450.60	864.25
450.73	843.75
450.87	823.75
451.00	842.00
451.13	872.50
451.26	994.50
451.39	812.50
451.52	852.00
451.65	829.00
451.78	819.75
451.91	810.00
452.04	800.00
452.17	915.50
452.30	915.75
452.43	816.00
452.56	815.50
452.69	887.50
452.82	799.50
452.95	863.00
453.08	797.00
453.21	749.00
453.34	855.00
453.47	807.25
453.60	872.25
453.73	927.75
453.86	865.75
453.99	852.50
454.12	832.75
454.25	820.25
454.38	850.50
454.52	794.25
454.65	812.25
454.78	810.50
454.91	778.25
455.04	801.75
455.17	796.25
455.30	804.25
455.43	900.50
455.56	811.75
455.69	783.50
455.82	861.50
455.95	845.75
456.08	791.00
456.21	785.50
456.34	772.75
456.47	764.50
456.60	809.75
456.73	795.25
456.86	824.00
456.99	860.00
457.12	805.75
457.25	818.25
457.38	902.25
457.51	859.50
457.64	834.00
457.77	803.00
457.90	824.00
458.03	810.50
458.16	818.75
458.29	819.00
458.42	823.25
458.55	775.75
458.68	797.25
458.81	823.00
458.94	894.25
459.07	930.50
459.20	787.75
459.33	790.25
459.46	884.00
459.59	925.25
459.72	888.00
459.85	816.50
459.98	902.25
460.11	867.75
460.24	834.75
460.37	786.00
460.50	879.50
460.63	840.50
460.76	818.50
460.89	834.50
461.02	857.50
461.15	861.00
461.28	834.00
461.41	808.00
461.54	908.50
461.67	797.75
461.80	834.00
461.93	868.50
462.06	847.75
462.19	886.00
462.32	812.50
462.45	807.75
462.58	858.25
462.71	817.00
462.84	814.75
462.97	768.00
463.10	823.50
463.23	841.50
463.36	863.00
463.49	830.50
463.62	783.50
463.75	851.75
463.88	818.25
464.01	827.25
464.14	790.75
464.27	920.50
464.40	821.25
464.53	819.75
464.66	861.25
464.79	846.25
464.92	839.25
465.05	788.75
465.18	828.25
465.31	831.75
465.44	824.75
465.57	801.75
465.70	815.25
465.83	942.00
465.96	842.50
466.09	795.50
466.22	881.75
466.35	851.25
466.48	804.00
466.61	799.25
466.74	812.25
466.87	874.75
467.00	853.50
467.13	851.75
467.26	868.50
467.39	786.00
467.52	780.25
467.65	819.75
467.78	901.50
467.91	840.00
468.04	833.50
468.17	804.50
468.30	823.50
468.43	797.75
468.56	800.50
468.69	850.25
468.82	861.75
468.95	798.75
469.08	811.75
469.21	824.00
469.34	873.50
469.47	936.25
469.60	909.75
469.73	830.25
469.86	849.75
469.99	881.50
470.11	807.75
470.24	815.50
470.37	876.50
470.50	837.00
470.63	812.75
470.76	828.75
470.89	870.00
471.02	948.75
471.15	817.00
471.28	820.00
471.41	931.25
471.54	857.00
471.67	810.25
471.80	761.75
471.93	877.25
472.06	854.25
472.19	824.25
472.32	803.00
472.45	937.00
472.58	885.50
472.71	833.25
472.84	808.75
472.97	807.75
473.10	795.25
473.23	873.00
473.36	778.00
473.49	885.75
473.62	878.75
473.74	843.50
473.87	873.00
474.00	813.75
474.13	805.50
474.26	842.50
474.39	859.50
474.52	835.25
474.65	821.00
474.78	830.25
474.91	781.00
475.04	863.50
475.17	966.00
475.30	863.00
475.43	847.25
475.56	889.50
475.69	837.25
475.82	857.50
475.95	809.25
476.08	910.00
476.21	847.25
476.34	878.00
476.46	864.75
476.59	898.75
476.72	820.50
476.85	832.75
476.98	805.25
477.11	890.00
477.24	842.25
477.37	779.75
477.50	810.00
477.63	851.50
477.76	799.75
477.89	764.25
478.02	790.25
478.15	838.25
478.28	828.00
478.41	855.25
478.54	823.00
478.66	880.25
478.79	829.25
478.92	826.50
479.05	838.75
479.18	858.75
479.31	816.25
479.44	811.75
479.57	798.75
479.70	819.75
479.83	849.00
479.96	821.25
480.09	856.25
480.22	981.50
480.35	950.25
480.48	880.75
480.60	843.75
480.73	815.50
480.86	867.25
480.99	831.50
481.12	825.75
481.25	840.00
481.38	901.50
481.51	823.25
481.64	837.50
481.77	870.50
481.90	838.25
482.03	835.50
482.16	827.50
482.29	902.00
482.41	855.25
482.54	864.00
482.67	815.75
482.80	843.00
482.93	887.00
483.06	811.25
483.19	892.00
483.32	877.00
483.45	842.50
483.58	852.00
483.71	868.00
483.84	888.75
483.97	872.75
484.09	845.00
484.22	823.25
484.35	816.25
484.48	791.75
484.61	817.75
484.74	828.75
484.87	862.00
485.00	797.50
485.13	852.25
485.26	806.50
485.39	870.50
485.52	843.25
485.64	910.00
485.77	866.00
485.90	892.75
486.03	803.25
486.16	855.50
486.29	815.00
486.42	838.50
486.55	856.25
486.68	835.25
486.81	864.75
486.94	861.25
487.06	838.75
487.19	881.50
487.32	859.25
487.45	852.00
487.58	834.00
487.71	850.75
487.84	805.75
487.97	878.00
488.10	894.75
488.23	834.50
488.35	793.75
488.48	838.75
488.61	812.00
488.74	826.25
488.87	825.00
489.00	862.50
489.13	945.00
489.26	878.00
489.39	877.25
489.52	887.00
489.64	880.00
489.77	858.25
489.90	854.75
490.03	840.25
490.16	833.00
490.29	827.00
490.42	827.50
490.55	864.75
490.68	820.25
490.81	836.25
490.93	797.25
491.06	909.50
491.19	875.75
491.32	865.25
491.45	874.50
491.58	803.00
491.71	859.00
491.84	833.25
491.97	837.75
492.09	911.25
492.22	885.75
492.35	857.25
492.48	887.50
492.61	866.75
492.74	857.75
492.87	857.25
493.00	846.00
493.12	834.50
493.25	855.50
493.38	837.25
493.51	821.00
493.64	800.25
493.77	858.00
493.90	869.00
494.03	875.00
494.16	913.50
494.28	921.50
494.41	847.00
494.54	854.00
494.67	981.25
494.80	919.50
494.93	840.50
495.06	867.25
495.19	879.50
495.31	857.75
495.44	837.00
495.57	823.25
495.70	877.00
495.83	847.00
495.96	813.25
496.09	852.75
496.22	928.25
496.34	954.50
496.47	841.75
496.60	880.00
496.73	902.50
496.86	897.50
496.99	826.75
497.12	857.00
497.24	786.75
497.37	864.25
497.50	834.75
497.63	823.00
497.76	850.25
497.89	912.00
498.02	883.75
498.15	778.25
498.27	860.50
498.40	905.50
498.53	916.50
498.66	864.00
498.79	907.00
498.92	821.25
499.05	867.50
499.17	857.50
499.30	897.25
499.43	949.75
499.56	875.50
499.69	808.75
499.82	871.50
499.95	847.25
500.07	820.25
500.20	848.50
500.33	904.75
500.46	1003.75
500.59	865.50
500.72	869.00
500.85	915.50
500.97	903.25
501.10	911.75
501.23	823.25
501.36	877.25
501.49	932.25
501.62	886.75
501.75	859.75
501.87	910.00
502.00	809.75
502.13	868.25
502.26	866.00
502.39	840.00
502.52	847.50
502.64	806.50
502.77	830.75
502.90	889.75
503.03	865.75
503.16	830.00
503.29	833.75
503.42	918.75
503.54	868.75
503.67	869.75
503.80	865.75
503.93	907.00
504.06	823.75
504.19	858.50
504.31	913.25
504.44	874.50
504.57	879.50
504.70	871.25
504.83	814.00
504.96	889.75
505.08	863.25
505.21	868.50
505.34	964.50
505.47	920.25
505.60	903.50
505.73	915.75
505.85	904.50
505.98	1000.00
506.11	864.00
506.24	830.75
506.37	832.00
506.50	864.75
506.62	902.50
506.75	847.50
506.88	837.25
507.01	885.75
507.14	820.50
507.27	855.25
507.39	832.75
507.52	847.75
507.65	847.25
507.78	874.00
507.91	830.50
508.04	921.00
508.16	921.00
508.29	882.50
508.42	852.25
508.55	834.25
508.68	837.50
508.81	908.25
508.93	844.75
509.06	857.00
509.19	909.25
509.32	889.50
509.45	878.00
509.57	885.25
509.70	843.50
509.83	860.75
509.96	813.75
510.09	869.25
510.22	859.00
510.34	864.00
510.47	856.75
510.60	967.50
510.73	888.25
510.86	887.25
510.98	855.75
511.11	847.75
511.24	918.50
511.37	885.50
511.50	853.00
511.63	889.25
511.75	877.75
511.88	871.00
512.01	885.25
512.14	872.50
512.27	883.00
512.39	865.25
512.52	858.25
512.65	873.50
512.78	840.50
512.91	863.75
513.03	866.25
513.16	906.25
513.29	879.25
513.42	848.25
513.55	827.25
513.67	886.00
513.80	822.25
513.93	842.75
514.06	845.00
514.19	897.25
514.31	885.00
514.44	907.75
514.57	849.00
514.70	870.50
514.83	925.25
514.95	850.00
515.08	881.75
515.21	891.00
515.34	876.25
515.47	872.00
515.59	846.25
515.72	893.00
515.85	897.25
515.98	925.50
516.11	883.25
516.23	909.75
516.36	935.75
516.49	890.75
516.62	877.25
516.75	932.75
516.87	932.00
517.00	855.25
517.13	893.25
517.26	926.25
517.39	897.50
517.51	818.50
517.64	869.00
517.77	949.50
517.90	837.25
518.02	862.00
518.15	834.75
518.28	794.25
518.41	877.75
518.54	864.75
518.66	884.50
518.79	845.25
518.92	864.75
519.05	835.75
519.18	865.25
519.30	898.75
519.43	817.00
519.56	848.50
519.69	858.25
519.81	919.25
519.94	866.25
520.07	809.75
520.20	854.25
520.33	884.50
520.45	939.75
520.58	884.50
520.71	889.25
520.84	924.75
520.96	898.25
521.09	867.75
521.22	840.75
521.35	916.25
521.48	911.00
521.60	850.75
521.73	878.50
521.86	935.75
521.99	963.00
522.11	886.50
522.24	873.00
522.37	897.50
522.50	886.75
522.62	926.00
522.75	819.00
522.88	884.75
523.01	852.50
523.14	897.50
523.26	883.50
523.39	955.50
523.52	854.25
523.65	972.50
523.77	906.50
523.90	881.00
524.03	867.00
524.16	863.00
524.28	851.00
524.41	861.25
524.54	874.00
524.67	832.75
524.79	862.00
524.92	902.50
525.05	950.25
525.18	839.00
525.31	910.00
525.43	847.00
525.56	982.75
525.69	857.75
525.82	811.00
525.94	916.00
526.07	924.75
526.20	909.75
526.33	926.00
526.45	1005.25
526.58	977.50
526.71	899.50
526.84	877.75
526.96	893.75
527.09	856.25
527.22	866.00
527.35	867.00
527.47	830.75
527.60	956.50
527.73	845.75
527.86	903.25
527.98	897.50
528.11	911.75
528.24	849.50
528.37	868.75
528.49	840.50
528.62	886.00
528.75	910.00
528.88	852.25
529.00	913.00
529.13	930.50
529.26	878.00
529.39	911.25
529.51	1011.25
529.64	981.00
529.77	864.00
529.90	868.00
530.02	867.00
530.15	856.75
530.28	813.00
530.40	853.75
530.53	876.25
530.66	905.75
530.79	866.25
530.91	877.50
531.04	856.75
531.17	872.75
531.30	871.75
531.42	879.75
531.55	883.75
531.68	940.25
531.81	861.75
531.93	875.00
532.06	888.25
532.19	848.00
532.31	865.75
532.44	866.25
532.57	905.50
532.70	863.00
532.82	885.75
532.95	907.75
533.08	948.75
533.21	916.25
533.33	848.25
533.46	863.00
533.59	868.00
533.71	1000.25
533.84	894.25
533.97	868.00
534.10	859.25
534.22	848.75
534.35	873.50
534.48	887.50
534.61	899.75
534.73	809.75
534.86	851.25
534.99	890.75
535.11	932.00
535.24	893.50
535.37	864.50
535.50	847.00
535.62	865.25
535.75	944.75
535.88	884.75
536.00	853.00
536.13	859.25
536.26	865.50
536.39	862.25
536.51	831.00
536.64	893.50
536.77	883.00
536.89	868.00
537.02	877.25
537.15	906.75
537.28	890.00
537.40	891.50
537.53	860.25
537.66	938.50
537.78	892.25
537.91	849.50
538.04	864.25
538.17	926.00
538.29	905.50
538.42	947.50
538.55	933.25
538.67	913.75
538.80	855.75
538.93	907.25
539.05	891.75
539.18	950.25
539.31	931.25
539.44	897.25
539.56	820.75
539.69	873.25
539.82	869.25
539.94	862.00
540.07	856.00
540.20	943.75
540.32	862.75
540.45	882.75
540.58	873.75
540.71	925.00
540.83	829.25
540.96	869.50
541.09	872.25
541.21	969.50
541.34	952.75
541.47	863.00
541.59	887.50
541.72	965.50
541.85	1040.25
541.98	938.50
542.10	882.50
542.23	911.00
542.36	1005.50
542.48	900.00
542.61	886.25
542.74	853.75
542.86	869.25
542.99	876.75
543.12	860.50
543.24	898.75
543.37	838.25
543.50	879.00
543.62	865.00
543.75	876.75
543.88	880.50
544.01	900.75
544.13	912.25
544.26	914.50
544.39	863.50
544.51	859.50
544.64	854.00
544.77	922.25
544.89	873.00
545.02	895.50
545.15	861.50
545.27	966.75
545.40	942.00
545.53	908.00
545.65	917.00
545.78	822.00
545.91	848.50
546.03	869.00
546.16	879.75
546.29	868.50
546.41	852.75
546.54	868.00
546.67	847.75
546.79	919.50
546.92	962.75
547.05	844.50
547.17	888.25
547.30	867.50
547.43	913.75
547.56	853.25
547.68	884.00
547.81	845.50
547.94	911.00
548.06	875.50
548.19	858.25
548.32	947.50
548.44	900.25
548.57	908.25
548.70	921.50
548.82	932.75
548.95	927.00
549.08	889.75
549.20	883.25
549.33	973.75
549.45	888.25
549.58	883.25
549.71	848.75
549.83	940.00
549.96	839.75
550.09	886.75
550.21	871.25
550.34	905.25
550.47	882.50
550.59	885.00
550.72	820.25
550.85	894.50
550.97	948.50
551.10	874.75
551.23	877.25
551.35	952.25
551.48	907.00
551.61	884.50
551.73	870.25
551.86	957.25
551.99	958.75
552.11	898.50
552.24	929.50
552.37	901.75
552.49	862.75
552.62	873.75
552.75	918.50
552.87	874.00
553.00	873.00
553.12	904.25
553.25	881.00
553.38	913.75
553.50	947.25
553.63	883.00
553.76	829.00
553.88	891.75
554.01	886.25
554.14	889.00
554.26	918.25
554.39	965.75
554.52	901.25
554.64	895.00
554.77	886.75
554.89	923.75
555.02	941.75
555.15	906.75
555.27	889.75
555.40	903.75
555.53	953.00
555.65	883.25
555.78	859.00
555.91	931.00
556.03	960.75
556.16	857.75
556.29	889.50
556.41	965.25
556.54	960.00
556.66	893.50
556.79	874.00
556.92	902.00
557.04	907.75
557.17	881.00
557.30	874.25
557.42	884.50
557.55	882.00
557.67	907.50
557.80	881.75
557.93	906.00
558.05	902.50
558.18	859.75
558.31	894.75
558.43	946.50
558.56	920.25
558.68	904.50
558.81	861.25
558.94	897.75
559.06	1017.50
559.19	886.25
559.32	883.50
559.44	852.00
559.57	903.25
559.69	863.75
559.82	864.75
559.95	876.50
560.07	879.50
560.20	822.50
560.33	885.75
560.45	902.75
560.58	847.00
560.70	906.00
560.83	861.75
560.96	880.50
561.08	883.75
561.21	921.25
561.33	866.50
561.46	854.50
561.59	945.00
561.71	883.00
561.84	911.00
561.97	857.75
562.09	924.00
562.22	872.50
562.34	866.75
562.47	933.50
562.60	924.75
562.72	893.75
562.85	898.00
562.97	893.25
563.10	892.25
563.23	867.75
563.35	872.75
563.48	910.25
563.60	895.50
563.73	918.00
563.86	852.50
563.98	878.00
564.11	898.50
564.23	893.00
564.36	948.50
564.49	903.25
564.61	957.25
564.74	905.25
564.86	876.50
564.99	946.25
565.12	929.50
565.24	952.25
565.37	938.75
565.49	953.00
565.62	985.75
565.75	928.75
565.87	871.00
566.00	1037.25
566.12	952.75
566.25	906.50
566.38	929.75
566.50	915.00
566.63	938.50
566.75	898.25
566.88	880.00
567.01	867.75
567.13	891.25
567.26	880.75
567.38	873.25
567.51	939.25
567.64	886.00
567.76	924.25
567.89	912.25
568.01	876.00
568.14	864.50
568.26	897.50
568.39	908.00
568.52	899.75
568.64	956.75
568.77	899.50
568.89	873.00
569.02	880.75
569.15	903.25
569.27	887.00
569.40	916.25
569.52	935.50
569.65	879.00
569.77	882.50
569.90	857.50
570.03	853.25
570.15	971.25
570.28	901.50
570.40	895.50
570.53	894.25
570.66	968.25
570.78	944.25
570.91	907.00
571.03	860.75
571.16	900.50
571.28	858.00
571.41	848.25
571.54	843.75
571.66	835.75
571.79	871.50
571.91	868.00
572.04	846.75
572.16	903.25
572.29	932.75
572.42	874.75
572.54	913.75
572.67	878.25
572.79	912.75
572.92	899.50
573.04	930.25
573.17	946.50
573.29	905.75
573.42	886.50
573.55	936.75
573.67	924.25
573.80	893.25
573.92	862.25
574.05	901.50
574.17	957.00
574.30	901.25
574.43	889.50
574.55	883.25
574.68	916.00
574.80	886.25
574.93	890.75
575.05	864.75
575.18	888.25
575.30	888.25
575.43	929.50
575.56	958.50
575.68	923.25
575.81	890.25
575.93	864.25
576.06	925.75
576.18	938.00
576.31	889.75
576.43	871.75
576.56	997.25
576.69	947.25
576.81	907.50
576.94	880.25
577.06	902.75
577.19	939.50
577.31	906.50
577.44	910.50
577.56	946.00
577.69	925.00
577.82	924.25
577.94	870.75
578.07	853.50
578.19	925.00
578.32	928.50
578.44	882.25
578.57	884.75
578.69	954.00
578.82	918.00
578.94	945.75
579.07	959.50
579.19	948.00
579.32	919.50
579.45	917.50
579.57	902.00
579.70	868.00
579.82	907.25
579.95	892.00
580.07	976.25
580.20	895.75
580.32	906.50
580.45	937.25
580.57	945.00
580.70	949.75
580.82	931.00
580.95	937.00
581.08	861.75
581.20	951.25
581.33	892.25
581.45	923.50
581.58	910.00
581.70	917.50
581.83	836.50
581.95	919.25
582.08	938.50
582.20	898.25
582.33	913.50
582.45	882.25
582.58	891.25
582.70	920.00
582.83	873.75
582.95	901.75
583.08	958.50
583.21	957.75
583.33	923.75
583.46	884.00
583.58	873.00
583.71	946.25
583.83	930.25
583.96	931.75
584.08	944.00
584.21	949.00
584.33	938.25
584.46	900.00
584.58	873.50
584.71	939.75
584.83	936.50
584.96	912.25
585.08	888.00
585.21	1007.00
585.33	974.75
585.46	935.50
585.58	955.50
585.71	892.00
585.83	912.75
585.96	955.25
586.08	953.25
586.21	942.25
586.33	953.00
586.46	871.25
586.59	940.75
586.71	882.50
586.84	929.00
586.96	916.25
587.09	852.25
587.21	888.00
587.34	934.75
587.46	896.75
587.59	862.25
587.71	909.00
587.84	892.75
587.96	859.25
588.09	869.50
588.21	938.25
588.34	899.00
588.46	913.25
588.59	880.75
588.71	928.50
588.84	926.50
588.96	902.25
589.09	1005.25
589.21	916.75
589.34	889.00
589.46	907.25
589.59	923.25
589.71	968.00
589.84	872.75
589.96	889.00
590.09	909.25
590.21	953.25
590.34	921.50
590.46	922.50
590.59	893.25
590.71	905.50
590.84	948.75
590.96	876.25
591.09	932.25
591.21	925.00
591.34	888.00
591.46	898.25
591.59	980.50
591.71	948.50
591.83	904.50
591.96	859.50
592.08	902.75
592.21	942.00
592.33	928.00
592.46	898.75
592.58	925.75
592.71	963.25
592.83	1003.25
592.96	952.00
593.08	974.75
593.21	887.00
593.33	871.75
593.46	895.00
593.58	910.50
593.71	959.25
593.83	974.75
593.96	888.50
594.08	1027.25
594.21	915.50
594.33	896.25
594.46	883.75
594.58	866.00
594.71	837.25
594.83	903.00
594.96	910.00
595.08	1083.25
595.20	954.75
595.33	922.00
595.45	890.25
595.58	1008.75
595.70	936.50
595.83	898.50
595.95	917.75
596.08	917.75
596.20	870.25
596.33	860.50
596.45	921.75
596.58	885.50
596.70	872.25
596.83	904.50
596.95	894.25
597.08	924.75
597.20	879.75
597.32	901.75
597.45	923.50
597.57	903.00
597.70	947.50
597.82	900.00
597.95	917.50
598.07	922.25
598.20	921.50
598.32	919.50
598.45	900.00
598.57	968.50
598.70	975.25
598.82	900.75
598.94	909.00
599.07	954.50
599.19	911.25
599.32	897.00
599.44	825.75
599.57	956.25
599.69	940.00
599.82	905.25
599.94	870.75
600.07	968.50
600.19	948.00
600.31	886.00
600.44	947.25
600.56	1027.00
600.69	1008.25
600.81	900.00
600.94	901.50
601.06	922.75
601.19	944.25
601.31	958.25
601.44	860.75
601.56	975.00
601.68	955.25
601.81	931.25
601.93	924.00
602.06	952.00
602.18	894.50
602.31	906.00
602.43	974.00
602.56	956.50
602.68	924.50
602.80	909.50
602.93	925.25
603.05	895.50
603.18	927.00
603.30	880.25
603.43	893.25
603.55	917.25
603.68	942.00
603.80	938.75
603.92	919.00
604.05	896.50
604.17	887.00
604.30	873.00
604.42	903.00
604.55	915.25
604.67	955.50
604.79	902.00
604.92	904.25
605.04	897.75
605.17	906.75
605.29	901.00
605.42	892.00
605.54	981.50
605.66	935.50
605.79	931.50
605.91	911.25
606.04	919.50
606.16	888.25
606.29	937.50
606.41	881.75
606.53	901.50
606.66	865.50
606.78	905.75
606.91	906.75
607.03	907.00
607.16	905.50
607.28	884.00
607.40	918.50
607.53	942.50
607.65	894.75
607.78	892.25
607.90	927.00
608.03	1034.50
608.15	933.25
608.27	940.75
608.40	869.75
608.52	943.75
608.65	923.75
608.77	944.00
608.89	924.75
609.02	994.25
609.14	1000.75
609.27	940.50
609.39	966.75
609.52	901.75
609.64	854.75
609.76	893.00
609.89	909.50
610.01	974.50
610.14	961.75
610.26	914.75
610.38	888.50
610.51	956.50
610.63	911.50
610.76	879.25
610.88	941.25
611.01	975.50
611.13	1020.25
611.25	959.75
611.38	886.75
611.50	912.00
611.63	941.00
611.75	941.75
611.87	938.75
612.00	916.75
612.12	962.50
612.25	917.00
612.37	898.25
612.49	992.00
612.62	975.00
612.74	981.50
612.87	927.75
612.99	933.50
613.11	878.50
613.24	912.00
613.36	907.50
613.49	936.50
613.61	932.75
613.73	915.75
613.86	957.75
613.98	895.50
614.11	952.00
614.23	967.25
614.35	978.75
614.48	975.50
614.60	937.00
614.72	921.25
614.85	937.00
614.97	929.75
615.10	932.25
615.22	916.00
615.34	932.25
615.47	981.75
615.59	904.00
615.72	929.50
615.84	944.50
615.96	907.25
616.09	1014.75
616.21	916.75
616.34	907.25
616.46	924.75
616.58	954.50
616.71	952.00
616.83	962.75
616.95	953.75
617.08	961.50
617.20	933.50
617.33	888.75
617.45	915.25
617.57	952.00
617.70	940.50
617.82	917.25
617.95	939.50
618.07	989.25
618.19	945.00
618.32	943.50
618.44	905.00
618.56	891.50
618.69	864.50
618.81	872.25
618.94	965.50
619.06	934.00
619.18	916.50
619.31	880.50
619.43	891.25
619.55	937.25
619.68	943.25
619.80	884.00
619.92	940.75
620.05	1064.50
620.17	983.75
620.30	925.25
620.42	943.50
620.54	981.00
620.67	915.75
620.79	937.00
620.91	952.75
621.04	1003.00
621.16	920.50
621.29	908.50
621.41	872.25
621.53	907.00
621.66	918.25
621.78	908.75
621.90	974.25
622.03	1027.00
622.15	932.25
622.27	919.75
622.40	936.00
622.52	910.25
622.64	909.25
622.77	894.25
622.89	952.75
623.02	970.50
623.14	947.75
623.26	959.75
623.39	955.25
623.51	984.75
623.63	912.25
623.76	897.00
623.88	996.75
624.00	936.75
624.13	903.25
624.25	901.75
624.37	891.50
624.50	979.25
624.62	958.50
624.75	888.00
624.87	897.50
624.99	956.50
625.12	916.00
625.24	923.00
625.36	1013.25
625.49	971.75
625.61	943.50
625.73	933.50
625.86	982.00
625.98	932.00
626.10	902.00
626.23	883.75
626.35	948.75
626.47	922.50
626.60	892.50
626.72	908.00
626.84	912.25
626.97	944.25
627.09	922.00
627.21	939.25
627.34	1039.00
627.46	1025.75
627.58	926.50
627.71	945.50
627.83	965.25
627.95	904.00
628.08	936.00
628.20	937.00
628.32	877.50
628.45	853.50
628.57	878.50
628.69	912.75
628.82	953.25
628.94	992.00
629.06	934.00
629.19	914.75
629.31	975.50
629.43	899.50
629.56	940.25
629.68	940.50
629.80	984.75
629.93	895.50
630.05	905.50
630.17	903.00
630.30	936.50
630.42	913.25
630.54	954.25
630.67	942.25
630.79	919.00
630.91	1057.25
631.04	953.25
631.16	946.00
631.28	955.00
631.41	918.25
631.53	898.50
631.65	937.00
631.78	958.75
631.90	935.75
632.02	935.25
632.14	854.00
632.27	989.25
632.39	937.25
632.51	908.00
632.64	970.25
632.76	950.25
632.88	914.50
633.01	943.75
633.13	926.75
633.25	954.75
633.38	1047.00
633.50	879.25
633.62	886.75
633.75	882.00
633.87	870.75
633.99	953.25
634.11	888.50
634.24	920.75
634.36	929.00
634.48	924.25
634.61	920.00
634.73	962.50
634.85	915.75
634.98	915.75
635.10	918.75
635.22	937.25
635.35	1051.75
635.47	952.75
635.59	932.00
635.71	970.00
635.84	994.25
635.96	930.75
636.08	974.50
636.21	924.75
636.33	947.00
636.45	936.50
636.58	920.00
636.70	886.75
636.82	970.00
636.94	910.75
637.07	887.75
637.19	967.25
637.31	977.00
637.44	959.75
637.56	887.50
637.68	954.25
637.81	958.00
637.93	945.25
638.05	902.75
638.17	987.75
638.30	1044.75
638.42	946.50
638.54	912.50
638.67	934.50
638.79	944.50
638.91	909.50
639.03	928.75
639.16	936.50
639.28	942.00
639.40	939.75
639.53	924.50
639.65	978.00
639.77	937.25
639.89	952.00
640.02	938.75
640.14	953.25
640.26	914.00
640.39	968.75
640.51	909.25
640.63	966.75
640.75	993.25
640.88	939.25
641.00	920.25
641.12	910.75
641.24	1024.50
641.37	925.50
641.49	904.25
641.61	1060.75
641.74	916.00
641.86	957.25
641.98	903.50
642.10	960.75
642.23	971.00
642.35	925.25
642.47	964.75
642.60	964.00
642.72	969.50
642.84	883.50
642.96	903.75
643.09	903.00
643.21	901.25
643.33	914.75
643.45	916.50
643.58	984.50
643.70	1030.25
643.82	940.00
643.94	924.50
644.07	953.75
644.19	971.75
644.31	953.00
644.44	948.50
644.56	939.75
644.68	906.25
644.80	918.50
644.93	908.50
645.05	914.00
645.17	967.00
645.29	950.50
645.42	952.50
645.54	942.00
645.66	971.75
645.78	943.50
645.91	929.25
646.03	978.75
646.15	1030.50
646.27	930.00
646.40	954.75
646.52	982.50
646.64	993.25
646.76	944.50
646.89	890.25
647.01	988.75
647.13	978.75
647.25	978.50
647.38	935.50
647.50	915.25
647.62	988.50
647.74	902.00
647.87	905.75
647.99	968.75
648.11	978.00
648.23	941.25
648.36	888.25
648.48	1020.25
648.60	958.75
648.72	930.25
648.85	908.50
648.97	1000.50
649.09	966.00
649.21	928.00
649.34	960.00
649.46	958.00
649.58	970.25
649.70	974.50
649.83	928.00
649.95	1009.50
650.07	998.50
650.19	986.75
650.32	955.50
650.44	1007.75
650.56	973.50
650.68	923.50
650.81	934.75
650.93	942.25
651.05	1016.50
651.17	933.75
651.29	973.50
651.42	951.25
651.54	972.50
651.66	924.75
651.78	917.00
651.91	979.00
652.03	1069.25
652.15	985.00
652.27	934.00
652.40	971.75
652.52	949.25
652.64	966.25
652.76	927.50
652.88	1054.25
653.01	967.50
653.13	930.25
653.25	887.50
653.37	990.00
653.50	1007.50
653.62	977.75
653.74	904.00
653.86	989.75
653.98	995.25
654.11	916.25
654.23	943.25
654.35	950.50
654.47	1077.75
654.60	941.75
654.72	943.75
654.84	920.75
654.96	993.75
655.08	934.75
655.21	983.25
655.33	965.75
655.45	1010.75
655.57	965.25
655.70	956.75
655.82	1000.50
655.94	1035.75
656.06	991.25
656.18	923.50
656.31	1016.75
656.43	990.00
656.55	932.00
656.67	947.00
656.79	954.75
656.92	1017.75
657.04	979.00
657.16	942.50
657.28	1079.50
657.40	986.75
657.53	994.50
657.65	955.50
657.77	1027.25
657.89	1025.00
658.01	948.00
658.14	919.00
658.26	998.25
658.38	958.75
658.50	924.00
658.62	919.50
658.75	1087.00
658.87	1017.75
658.99	990.00
659.11	924.50
659.23	1008.25
659.36	1078.00
659.48	1020.25
659.60	992.00
659.72	968.75
659.84	977.75
659.97	995.50
660.09	1000.75
660.21	1074.50
660.33	1006.25
660.45	915.75
660.58	896.00
660.70	949.50
660.82	962.50
660.94	920.50
661.06	970.50
661.19	1032.00
661.31	1014.75
661.43	974.25
661.55	953.75
661.67	1006.00
661.80	1038.25
661.92	974.00
662.04	978.25
662.16	976.25
662.28	1033.50
662.40	976.50
662.53	976.00
662.65	994.75
662.77	954.75
662.89	976.00
663.01	958.75
663.14	982.75
663.26	1002.50
663.38	964.50
663.50	935.25
663.62	954.50
663.74	969.50
663.87	959.25
663.99	981.25
664.11	997.00
664.23	1094.25
664.35	964.75
664.48	961.25
664.60	975.75
664.72	959.25
664.84	924.25
664.96	958.75
665.08	1022.50
665.21	997.25
665.33	1009.50
665.45	927.25
665.57	974.25
665.69	1059.50
665.81	972.75
665.94	940.00
666.06	935.75
666.18	995.25
666.30	967.00
666.42	957.25
666.54	995.00
666.67	1004.50
666.79	940.50
666.91	1007.00
667.03	978.00
667.15	939.50
667.27	969.00
667.40	939.50
667.52	972.50
667.64	1028.75
667.76	953.75
667.88	931.00
668.00	1015.00
668.13	1029.00
668.25	955.00
668.37	946.25
668.49	966.25
668.61	1036.00
668.73	973.00
668.85	982.00
668.98	994.50
669.10	995.25
669.22	961.25
669.34	982.25
669.46	1020.00
669.58	973.25
669.71	993.25
669.83	979.25
669.95	971.75
670.07	991.50
670.19	966.75
670.31	982.00
670.43	970.75
670.56	1007.00
670.68	1033.25
670.80	1004.50
670.92	996.50
671.04	1052.00
671.16	972.50
671.28	972.25
671.41	979.25
671.53	1027.50
671.65	974.25
671.77	977.25
671.89	1146.00
672.01	1102.75
672.13	1032.00
672.26	949.75
672.38	998.50
672.50	957.25
672.62	986.00
672.74	1002.25
672.86	984.25
672.98	1005.00
673.11	990.75
673.23	999.00
673.35	1063.00
673.47	991.00
673.59	985.75
673.71	947.75
673.83	1020.00
673.96	1115.75
674.08	990.00
674.20	952.50
674.32	989.25
674.44	997.75
674.56	1008.50
674.68	1003.75
674.80	1026.75
674.93	1001.75
675.05	982.00
675.17	990.75
675.29	1039.50
675.41	1043.75
675.53	986.50
675.65	979.50
675.77	982.25
675.90	1042.25
676.02	972.50
676.14	948.50
676.26	1058.50
676.38	1098.75
676.50	1001.00
676.62	1027.25
676.74	966.25
676.87	986.75
676.99	1013.75
677.11	1044.50
677.23	1012.00
677.35	1033.25
677.47	952.50
677.59	970.75
677.71	1016.75
677.83	1031.75
677.96	998.25
678.08	985.50
678.20	990.50
678.32	978.25
678.44	991.00
678.56	994.00
678.68	1150.25
678.80	1051.75
678.93	998.50
679.05	1010.75
679.17	1002.75
679.29	1056.50
679.41	1000.75
679.53	972.25
679.65	979.50
679.77	1003.00
679.89	985.75
680.01	1037.00
680.14	1038.75
680.26	949.75
680.38	980.25
680.50	1034.25
680.62	1089.00
680.74	1033.25
680.86	994.25
680.98	1011.00
681.10	1027.25
681.22	1117.50
681.35	999.00
681.47	985.00
681.59	992.25
681.71	1081.00
681.83	997.00
681.95	971.25
682.07	1071.00
682.19	1030.00
682.31	991.50
682.43	959.75
682.56	1051.25
682.68	962.00
682.80	981.00
682.92	1019.50
683.04	1017.50
683.16	1002.00
683.28	985.25
683.40	1038.50
683.52	1017.25
683.64	1038.00
683.76	981.25
683.89	987.00
684.01	1008.00
684.13	1060.25
684.25	1008.50
684.37	1009.25
684.49	1046.50
684.61	1007.25
684.73	1013.75
684.85	997.75
684.97	979.50
685.09	1069.00
685.21	975.75
685.34	1014.75
685.46	1158.00
685.58	1039.00
685.70	1020.75
685.82	1064.50
685.94	978.75
686.06	982.00
686.18	985.75
686.30	993.50
686.42	978.75
686.54	1050.25
686.66	982.25
686.79	1077.75
686.91	1039.25
687.03	1137.50
687.15	1039.75
687.27	1012.50
687.39	1019.50
687.51	1093.25
687.63	1040.75
687.75	1074.00
687.87	1053.25
687.99	1101.75
688.11	989.75
688.23	1033.50
688.35	1065.00
688.48	1050.75
688.60	986.75
688.72	1001.25
688.84	1025.25
688.96	1049.00
689.08	1012.75
689.20	1020.25
689.32	1144.25
689.44	1037.25
689.56	973.00
689.68	992.25
689.80	1013.25
689.92	1003.50
690.04	1001.50
690.16	1048.75
690.28	1037.25
690.41	1038.00
690.53	997.50
690.65	1054.00
690.77	1081.00
690.89	1080.50
691.01	1034.00
691.13	1000.50
691.25	988.00
691.37	1014.25
691.49	966.75
691.61	967.25
691.73	1105.00
691.85	1015.50
691.97	1003.00
692.09	982.75
692.21	1077.00
692.33	1097.00
692.45	1037.00
692.57	1009.50
692.70	1031.00
692.82	1049.75
692.94	972.25
693.06	1000.50
693.18	1020.50
693.30	1008.25
693.42	1005.75
693.54	1035.00
693.66	1044.75
693.78	1047.00
693.90	1004.25
694.02	1032.50
694.14	1053.00
694.26	1013.75
694.38	1025.25
694.50	1041.00
694.62	1042.50
694.74	981.75
694.86	983.00
694.98	1037.00
695.10	1043.75
695.22	1079.75
695.34	997.75
695.46	996.75
695.58	1011.50
695.71	1051.50
695.83	1003.75
695.95	1011.75
696.07	1094.75
696.19	992.25
696.31	1001.75
696.43	990.75
696.55	1111.50
696.67	1049.25
696.79	1019.75
696.91	1027.00
697.03	1018.00
697.15	1105.75
697.27	1036.25
697.39	1001.00
697.51	1062.50
697.63	999.75
697.75	1000.00
697.87	1027.75
697.99	978.00
698.11	957.75
698.23	991.75
698.35	1003.25
698.47	1012.75
698.59	1051.50
698.71	1019.00
698.83	1068.50
698.95	999.00
699.07	1043.75
699.19	1011.00
699.31	1038.00
699.43	1004.00
699.55	1063.25
699.67	1013.75
699.79	1016.50
699.91	1016.75
700.03	1040.00
700.15	1035.75
700.27	998.75
700.39	1026.75
700.51	988.75
700.63	1029.25
700.75	1030.50
700.87	1049.50
700.99	1012.50
701.11	1056.00
701.24	1030.75
701.36	1068.25
701.48	1080.25
701.60	1057.75
701.72	1001.75
701.84	1105.75
701.96	1049.50
702.08	1038.75
702.20	1112.00
702.32	1071.75
702.44	1067.00
702.56	1033.75
702.68	1027.00
702.80	1040.50
702.92	1135.25
703.04	1104.50
703.16	1043.00
703.28	1046.75
703.40	1041.25
703.52	1055.00
703.64	1062.25
703.76	1053.75
703.88	1030.75
704.00	1016.50
704.12	1028.00
704.24	1087.50
704.36	1044.00
704.48	1050.00
704.60	1003.50
704.72	1024.25
704.84	1022.75
704.96	1072.00
705.07	1061.00
705.19	1011.00
705.31	1036.25
705.43	1072.25
705.55	1019.50
705.67	1066.00
705.79	1039.25
705.91	980.50
706.03	1038.25
706.15	1057.00
706.27	1027.75
706.39	1024.00
706.51	1014.75
706.63	1027.25
706.75	1068.50
706.87	1043.50
706.99	1107.25
707.11	1052.50
707.23	1038.75
707.35	1066.00
707.47	1048.25
707.59	1077.50
707.71	1081.75
707.83	1041.50
707.95	1083.00
708.07	1039.75
708.19	1171.50
708.31	1061.75
708.43	1013.25
708.55	1070.50
708.67	1102.75
708.79	1059.00
708.91	1077.00
709.03	1065.75
709.15	1103.50
709.27	1035.50
709.39	1055.25
709.51	1043.00
709.63	1067.25
709.75	1072.75
709.87	998.50
709.99	1084.00
710.11	1028.75
710.23	1030.25
710.35	1006.75
710.47	1156.25
710.58	1110.50
710.70	1107.00
710.82	1111.00
710.94	1065.50
711.06	1047.25
711.18	1054.00
711.30	1023.25
711.42	1084.25
711.54	1049.00
711.66	1078.75
711.78	1027.25
711.90	1081.25
712.02	1120.25
712.14	1027.00
712.26	1010.00
712.38	1120.00
712.50	1119.00
712.62	1035.25
712.74	1032.50
712.86	1033.75
712.98	1108.50
713.10	1031.50
713.22	1022.25
713.34	1066.25
713.45	1041.00
713.57	1064.00
713.69	1025.00
713.81	1044.50
713.93	1072.50
714.05	1057.25
714.17	1009.75
714.29	1131.75
714.41	1114.75
714.53	1040.25
714.65	1076.25
714.77	1068.50
714.89	1018.75
715.01	1105.25
715.13	1038.00
715.25	1070.25
715.37	1028.25
715.49	1002.75
715.61	1075.25
715.72	1080.75
715.84	1115.50
715.96	1057.50
716.08	1052.50
716.20	1127.75
716.32	1113.75
716.44	1059.25
716.56	1056.75
716.68	1082.00
716.80	1171.00
716.92	1128.00
717.04	1071.50
717.16	1095.25
717.28	1057.25
717.40	1054.25
717.52	1070.50
717.63	1043.75
717.75	1077.25
717.87	1059.25
717.99	1077.75
718.11	1049.25
718.23	1131.00
718.35	1076.50
718.47	1069.25
718.59	1010.00
718.71	1061.25
718.83	1048.75
718.95	1088.25
719.07	1020.50
719.19	1057.50
719.30	1056.75
719.42	1074.25
719.54	1059.00
719.66	1074.25
719.78	1078.25
719.90	1001.50
720.02	1075.25
720.14	1074.25
720.26	1098.50
720.38	1088.50
720.50	1051.50
720.62	992.75
720.74	1062.75
720.85	1073.75
720.97	1138.50
721.09	1163.25
721.21	1064.00
721.33	1123.50
721.45	1079.00
721.57	1083.75
721.69	1037.75
721.81	1015.75
721.93	1144.50
722.05	1093.50
722.16	1038.00
722.28	1010.50
722.40	1045.25
722.52	1135.00
722.64	1146.75
722.76	1041.25
722.88	1096.25
723.00	1094.00
723.12	1056.75
723.24	1084.75
723.36	1012.25
723.47	1112.50
723.59	1075.50
723.71	1065.00
723.83	1097.50
723.95	1061.25
724.07	1073.00
724.19	1087.25
724.31	1146.50
724.43	1048.25
724.55	1001.00
724.66	1049.75
724.78	1221.25
724.90	1055.25
725.02	1048.00
725.14	1049.00
725.26	1077.25
725.38	1019.00
725.50	1071.50
725.62	1081.75
725.74	1068.75
725.85	1065.50
725.97	1069.50
726.09	1142.50
726.21	1411.00
726.33	1116.00
726.45	1073.00
726.57	1043.50
726.69	1082.00
726.81	1086.25
726.92	1080.75
727.04	1081.25
727.16	1100.50
727.28	1071.00
727.40	1070.00
727.52	1074.75
727.64	1208.75
727.76	1169.25
727.88	1095.00
727.99	1042.50
728.11	1034.50
728.23	1070.75
728.35	1051.75
728.47	1052.75
728.59	1070.00
728.71	1093.75
728.83	1085.00
728.94	1107.25
729.06	1186.75
729.18	1166.00
729.30	1113.50
729.42	1080.00
729.54	1162.00
729.66	1178.00
729.78	1084.50
729.90	1095.75
730.01	1064.75
730.13	1012.25
730.25	1069.50
730.37	1057.50
730.49	1110.50
730.61	1108.50
730.73	1099.00
730.84	1111.00
730.96	1104.75
731.08	1099.00
731.20	1087.75
731.32	1099.00
731.44	1252.50
731.56	1092.75
731.68	1054.75
731.79	1099.75
731.91	1056.25
732.03	1061.00
732.15	1082.00
732.27	1060.00
732.39	1074.00
732.51	1133.00
732.62	1067.75
732.74	1075.25
732.86	1139.25
732.98	1102.50
733.10	1088.25
733.22	1095.50
733.34	1111.75
733.45	1044.50
733.57	1097.25
733.69	1046.50
733.81	1072.25
733.93	1101.50
734.05	1014.00
734.17	1083.50
734.28	1083.25
734.40	1098.00
734.52	1069.75
734.64	1078.25
734.76	1171.00
734.88	1099.50
735.00	1052.50
735.11	1077.75
735.23	1135.25
735.35	1064.50
735.47	1039.50
735.59	1126.25
735.71	1086.25
735.83	1101.00
735.94	1115.00
736.06	1101.25
736.18	1151.00
736.30	1137.25
736.42	1117.75
736.54	1110.75
736.65	1129.75
736.77	1248.75
736.89	1140.00
737.01	1105.50
737.13	1202.75
737.25	1017.50
737.36	1050.25
737.48	1092.50
737.60	1100.75
737.72	1074.25
737.84	1089.25
737.96	1144.00
738.08	1087.25
738.19	1173.50
738.31	1074.50
738.43	1100.25
738.55	1099.25
738.67	1096.50
738.79	1064.50
738.90	1092.75
739.02	1115.25
739.14	1076.75
739.26	1095.75
739.38	1098.75
739.50	1114.25
739.61	1098.50
739.73	1096.50
739.85	1091.00
739.97	1114.75
740.09	1166.50
740.20	1047.75
740.32	1114.25
740.44	1134.75
740.56	1055.25
740.68	1089.75
740.80	1096.25
740.91	1099.00
741.03	1144.50
741.15	1130.50
741.27	1091.75
741.39	1146.75
741.51	1114.75
741.62	1140.75
741.74	1098.75
741.86	1105.75
741.98	1079.25
742.10	1111.50
742.21	1104.75
742.33	1111.50
742.45	1064.75
742.57	1146.00
742.69	1082.25
742.80	1136.75
742.92	1096.25
743.04	1094.25
743.16	1084.00
743.28	1158.75
743.40	1060.50
743.51	1071.00
743.63	1074.25
743.75	1108.25
743.87	1102.25
743.99	1115.25
744.10	1096.75
744.22	1095.50
744.34	1082.50
744.46	1122.50
744.58	1121.25
744.69	1035.75
744.81	1114.50
744.93	1048.75
745.05	1054.50
745.17	1186.00
745.28	1168.00
745.40	1119.75
745.52	1100.50
745.64	1110.25
745.76	1150.00
745.87	1100.00
745.99	1081.00
746.11	1111.75
746.23	1056.00
746.35	1102.25
746.46	1077.75
746.58	1215.25
746.70	1127.25
746.82	1117.00
746.94	1103.00
747.05	1074.00
747.17	1049.75
747.29	1050.75
747.41	1088.25
747.53	1234.75
747.64	1099.50
747.76	1156.00
747.88	1150.50
748.00	1157.00
748.12	1107.00
748.23	1101.25
748.35	1125.75
748.47	1151.25
748.59	1146.25
748.70	1097.00
748.82	1067.25
748.94	1080.00
749.06	1094.50
749.18	1103.25
749.29	1081.75
749.41	1120.00
749.53	1100.50
749.65	1086.50
749.76	1129.75
749.88	1091.25
750.00	1118.25
750.12	1137.75
750.24	1127.00
750.35	1114.75
750.47	1071.25
750.59	1124.75
750.71	1100.00
750.82	1142.00
750.94	1077.75
751.06	1097.00
751.18	1087.00
751.30	1137.25
751.41	1137.25
751.53	1133.50
751.65	1085.50
751.77	1076.00
751.88	1119.50
752.00	1143.50
752.12	1050.00
752.24	1159.00
752.35	1138.00
752.47	1133.25
752.59	1148.00
752.71	1175.00
752.83	1084.50
752.94	1150.25
753.06	1080.75
753.18	1109.00
753.30	1089.25
753.41	1041.50
753.53	1082.25
753.65	1088.00
753.77	1143.75
753.88	1086.00
754.00	1112.25
754.12	1111.75
754.24	1181.75
754.35	1078.75
754.47	1046.00
754.59	1135.25
754.71	1136.25
754.82	1110.25
754.94	1103.00
755.06	1168.00
755.18	1121.25
755.29	1121.50
755.41	1081.50
755.53	1140.00
755.65	1081.50
755.76	1112.75
755.88	1101.75
756.00	1176.00
756.12	1089.00
756.23	1011.00
756.35	1064.50
756.47	1149.75
756.59	1086.75
756.70	1073.50
756.82	1078.50
756.94	1097.25
757.06	1119.00
757.17	1116.00
757.29	1088.50
757.41	1052.25
757.53	1117.25
757.64	1103.75
757.76	1110.00
757.88	1123.25
758.00	1127.50
758.11	1087.50
758.23	1055.50
758.35	1125.50
758.47	1074.50
758.58	1125.25
758.70	1055.00
758.82	1084.25
758.94	1060.75
759.05	1098.25
759.17	1051.50
759.29	1101.75
759.40	1158.25
759.52	1089.00
759.64	1092.50
759.76	1109.00
759.87	1112.25
759.99	1110.50
760.11	1079.25
760.23	1112.75
760.34	1139.00
760.46	1121.00
760.58	1094.25
760.70	1105.50
760.81	1154.50
760.93	1107.25
761.05	1131.50
761.16	1125.75
761.28	1094.25
761.40	1077.25
761.52	1060.50
761.63	1159.75
761.75	1112.00
761.87	1088.75
761.98	1049.00
762.10	1128.00
762.22	1103.00
762.34	1140.00
762.45	1085.75
762.57	1131.50
762.69	1229.25
762.81	1092.75
762.92	1110.25
763.04	1040.00
763.16	1125.50
763.27	1130.00
763.39	1088.00
763.51	1136.50
763.63	1119.75
763.74	1076.75
763.86	1040.00
763.98	1067.25
764.09	1077.50
764.21	1095.00
764.33	1061.25
764.44	1077.50
764.56	1102.50
764.68	1065.25
764.80	1106.25
764.91	1038.75
765.03	1154.00
765.15	1095.25
765.26	1088.75
765.38	1054.75
765.50	1127.50
765.62	1092.75
765.73	1094.00
765.85	1096.50
765.97	1052.50
766.08	1098.75
766.20	1110.75
766.32	1124.25
766.43	1150.50
766.55	1122.25
766.67	1084.00
766.79	1092.25
766.90	1060.50
767.02	1030.75
767.14	1042.25
767.25	1057.00
767.37	1187.50
767.49	1117.00
767.60	1082.00
767.72	1151.75
767.84	1113.75
767.95	1074.00
768.07	1057.75
768.19	1116.50
768.31	1120.75
768.42	1103.25
768.54	1082.75
768.66	1094.25
768.77	1131.25
768.89	1103.75
769.01	1073.50
769.12	1124.25
769.24	1102.25
769.36	1055.25
769.47	1059.75
769.59	1050.25
769.71	1116.75
769.82	1087.00
769.94	1069.50
770.06	1045.25
770.17	1126.25
770.29	1098.50
770.41	1123.25
770.53	1120.75
770.64	1052.75
770.76	1091.25
770.88	1114.00
770.99	1120.50
771.11	1059.25
771.23	1099.50
771.34	1086.75
771.46	1176.25
771.58	1148.25
771.69	1118.00
771.81	1081.00
771.93	1120.75
772.04	1065.25
772.16	1111.75
772.28	1096.25
772.39	1150.00
772.51	1090.25
772.63	1111.75
772.74	1077.50
772.86	1084.50
772.98	1210.50
773.09	1058.00
773.21	1061.75
773.33	1122.00
773.44	1107.50
773.56	1076.50
773.68	1088.00
773.79	1125.50
773.91	1073.00
774.03	1094.50
774.14	1082.25
774.26	1132.00
774.38	1050.25
774.49	1035.50
774.61	1072.00
774.73	1079.00
774.84	1066.75
774.96	1056.75
775.08	1074.00
775.19	1120.25
775.31	1142.25
775.43	1094.75
775.54	1066.50
775.66	1029.50
775.77	1129.25
775.89	1051.75
776.01	1120.75
776.12	1129.00
776.24	1105.75
776.36	1032.00
776.47	1054.50
776.59	1086.75
776.71	1125.75
776.82	1011.75
776.94	1037.75
777.06	1070.75
777.17	1140.25
777.29	1036.25
777.41	1058.50
777.52	1104.50
777.64	1087.75
777.75	1105.00
777.87	1026.50
777.99	1064.25
778.10	1118.00
778.22	1066.75
778.34	1096.50
778.45	1075.75
778.57	1124.00
778.69	1107.50
778.80	1077.50
778.92	1188.25
779.04	1095.00
779.15	1075.50
779.27	1123.25
779.38	1114.00
779.50	1133.25
779.62	1026.00
779.73	1061.75
779.85	1019.75
779.97	1191.75
780.08	1085.25
780.20	1074.00
780.31	1104.25
780.43	1118.00
780.55	1056.50
780.66	1079.50
780.78	1098.00
780.90	1186.00
781.01	1047.50
781.13	1061.75
781.25	1061.75
781.36	1119.75
781.48	1048.00
781.59	1070.25
781.71	1102.25
781.83	1102.25
781.94	1043.25
782.06	1048.25
782.18	1121.50
782.29	1066.25
782.41	1023.75
782.52	1112.25
782.64	1126.00
782.76	1089.00
782.87	1086.00
782.99	1065.00
783.10	1193.50
783.22	1217.50
783.34	1082.00
783.45	1079.50
783.57	1069.00
783.69	1047.75
783.80	1082.00
783.92	1092.25
784.03	1072.25
784.15	1041.50
784.27	1064.50
784.38	1051.00
784.50	1073.25
784.61	1075.50
784.73	1035.75
784.85	1047.50
784.96	1040.50
785.08	1114.25
785.19	1114.75
785.31	1069.25
785.43	1032.50
785.54	1030.75
785.66	1094.00
785.77	1069.75
785.89	1095.50
786.01	1014.25
786.12	1044.75
786.24	1067.75
786.35	1136.00
786.47	1081.00
786.59	1047.50
786.70	1020.25
786.82	1084.00
786.93	1080.75
787.05	1064.75
787.17	1086.00
787.28	1063.50
787.40	1079.00
787.51	1077.50
787.63	1086.25
787.75	1021.00
787.86	1073.75
787.98	1094.00
788.09	1056.25
788.21	1079.75
788.33	1092.50
788.44	1080.25
788.56	1031.00
788.67	1089.50
788.79	1045.75
788.91	1057.00
789.02	1034.50
789.14	1053.50
789.25	1144.00
789.37	1092.50
789.48	1036.50
789.60	1082.75
789.72	1030.75
789.83	1088.25
789.95	1071.50
790.06	1004.25
790.18	1037.50
790.30	1090.75
790.41	1069.75
790.53	1033.00
790.64	1003.25
790.76	1014.00
790.87	1041.00
790.99	1060.75
791.11	1068.00
791.22	1025.75
791.34	1052.25
791.45	1098.75
791.57	1081.50
791.68	1049.50
791.80	1033.25
791.92	1090.00
792.03	1039.75
792.15	1008.00
792.26	1028.75
792.38	1008.50
792.49	1079.75
792.61	1048.25
792.73	1051.00
792.84	1048.00
792.96	1158.50
793.07	1039.50
793.19	1838.50
793.30	1144.75
793.42	1090.25
793.54	994.25
793.65	996.75
793.77	1181.00
793.88	1047.50
794.00	1001.25
794.11	1051.75
794.23	995.75
794.34	1060.25
794.46	984.25
794.58	1001.50
794.69	1144.50
794.81	1134.25
794.92	1012.25
795.04	1007.00
795.15	1119.75
795.27	1085.75
795.39	1050.25
795.50	1018.75
795.62	1020.25
795.73	1023.75
795.85	1024.00
795.96	1060.00
796.08	1090.50
796.19	1024.75
796.31	1027.00
796.42	995.75
796.54	1019.00
796.66	1082.25
796.77	1000.25
796.89	987.00
797.00	1082.00
797.12	968.50
797.23	1021.00
797.35	1043.75
797.46	1066.50
797.58	1087.00
797.69	1051.50
797.81	1018.50
797.93	1033.25
798.04	1017.50
798.16	1022.25
798.27	1048.75
798.39	1003.75
798.50	992.50
798.62	992.75
798.73	985.25
798.85	1107.00
798.96	1036.75
799.08	1069.50
799.19	1068.00
799.31	1043.50
799.43	1048.75
799.54	1016.75
799.66	1049.50
799.77	1060.25
799.89	1008.00
800.00	961.75
800.12	1010.00
800.23	1078.75
800.35	1111.50
800.46	971.00
800.58	956.50
800.69	1035.75
800.81	1019.25
800.92	981.00
801.04	1023.50
801.16	966.00
801.27	974.25
801.39	992.00
801.50	1010.75
801.62	1021.50
801.73	1081.75
801.85	1070.00
801.96	990.00
802.08	1079.25
802.19	1085.25
802.31	1013.00
802.42	1029.25
802.54	1097.50
802.65	1086.75
802.77	986.75
802.88	1050.50
803.00	973.00
803.11	1130.00
803.23	1028.50
803.34	1025.75
803.46	1046.75
803.57	985.25
803.69	1054.25
803.80	973.50
803.92	1073.50
804.03	1007.00
804.15	1026.75
804.26	1047.75
804.38	1062.50
804.50	985.50
804.61	1031.75
804.73	1024.25
804.84	1021.50
804.96	950.25
805.07	1009.00
805.19	971.75
805.30	1045.50
805.42	1058.00
805.53	1012.00
805.65	988.75
805.76	962.50
805.88	998.00
805.99	1022.75
806.11	1041.75
806.22	992.75
806.34	1001.25
806.45	1017.75
806.57	998.00
806.68	1037.75
806.80	931.50
806.91	970.75
807.03	957.00
807.14	944.50
807.26	951.00
807.37	943.75
807.49	1009.00
807.60	972.75
807.72	1065.50
807.83	1082.25
807.95	1010.50
808.06	1011.25
808.17	1012.50
808.29	1039.25
808.40	968.75
808.52	1010.75
808.63	996.50
808.75	995.75
808.86	996.25
808.98	1002.00
809.09	957.75
809.21	995.00
809.32	963.25
809.44	1021.75
809.55	938.50
809.67	993.50
809.78	943.00
809.90	1008.25
810.01	1046.75
810.13	960.25
810.24	997.50
810.36	926.75
810.47	942.50
810.59	975.25
810.70	996.75
810.82	1022.50
810.93	930.25
811.05	942.50
811.16	940.50
811.27	932.00
811.39	978.25
811.50	1005.50
811.62	914.50
811.73	899.00
811.85	985.00
811.96	969.50
812.08	984.25
812.19	961.50
812.31	979.25
812.42	958.00
812.54	930.50
812.65	1009.50
812.77	1008.25
812.88	992.50
813.00	985.50
813.11	975.50
813.22	926.25
813.34	925.75
813.45	949.00
813.57	1041.75
813.68	1043.75
813.80	958.50
813.91	915.25
814.03	934.75
814.14	1026.50
814.26	926.50
814.37	935.75
814.49	942.75
814.60	930.75
814.71	912.75
814.83	929.00
814.94	893.75
815.06	923.50
815.17	932.00
815.29	923.25
815.40	890.00
815.52	1026.00
815.63	916.00
815.75	915.25
815.86	937.50
815.97	878.25
816.09	918.50
816.20	951.50
816.32	941.00
816.43	869.50
816.55	924.50
816.66	904.25
816.78	1020.00
816.89	914.50
817.00	918.75
817.12	900.75
817.23	894.50
817.35	954.00
817.46	912.75
817.58	884.50
817.69	1038.00
817.81	914.50
817.92	941.50
818.03	918.00
818.15	912.50
818.26	879.25
818.38	863.00
818.49	897.25
818.61	910.00
818.72	856.75
818.83	1951.25
818.95	1034.25
819.06	878.25
819.18	878.50
819.29	903.75
819.41	888.50
819.52	903.25
819.64	903.75
819.75	875.00
819.86	850.00
819.98	868.25
820.09	910.75
820.21	890.75
820.32	854.25
820.44	911.75
820.55	966.50
820.66	864.75
820.78	921.00
820.89	890.25
821.01	910.25
821.12	877.75
821.23	892.75
821.35	860.50
821.46	925.75
821.58	882.75
821.69	865.25
821.81	850.00
821.92	935.25
822.03	869.00
822.15	886.00
822.26	846.00
822.38	850.50
822.49	885.50
822.61	888.25
822.72	881.50
822.83	919.00
822.95	863.75
823.06	875.50
823.18	913.00
823.29	943.25
823.40	892.25
823.52	851.75
823.63	815.50
823.75	957.75
823.86	871.50
823.97	815.25
824.09	893.75
824.20	825.50
824.32	863.00
824.43	845.50
824.55	899.25
824.66	949.50
824.77	851.25
824.89	872.75
825.00	925.50
825.12	866.25
825.23	866.25
825.34	803.75
825.46	821.00
825.57	884.75
825.69	832.75
825.80	777.25
825.91	820.25
826.03	806.50
826.14	870.75
826.26	813.50
826.37	855.25
826.48	832.25
826.60	848.00
826.71	820.00
826.83	855.50
826.94	860.50
827.05	883.25
827.17	874.75
827.28	830.75
827.39	829.75
827.51	800.50
827.62	841.50
827.74	848.00
827.85	834.75
827.96	813.50
828.08	829.00
828.19	929.00
828.31	821.00
828.42	777.25
828.53	848.25
828.65	888.25
828.76	892.50
828.87	856.25
828.99	808.50
