Wavelength (nm)	Intensity
377.35	815.33
377.48	605.33
377.62	615.67
377.75	622.33
377.88	847.67
378.02	830.67
378.15	830.33
378.28	803.00
378.41	886.00
378.55	858.00
378.68	823.33
378.81	802.67
378.95	834.33
379.08	815.33
379.21	788.00
379.35	852.67
379.48	861.00
379.61	910.00
379.74	822.67
379.88	812.00
380.01	894.67
380.14	956.67
380.28	861.33
380.41	792.67
380.54	849.67
380.68	872.33
380.81	776.00
380.94	855.67
381.07	913.67
381.21	924.00
381.34	828.00
381.47	768.33
381.61	989.33
381.74	852.00
381.87	803.67
382.00	852.33
382.14	932.00
382.27	885.00
382.40	815.00
382.54	898.67
382.67	920.33
382.80	804.00
382.93	816.67
383.07	824.33
383.20	835.33
383.33	883.00
383.47	808.00
383.60	786.67
383.73	993.67
383.86	863.33
384.00	826.00
384.13	818.00
384.26	877.67
384.40	886.33
384.53	834.33
384.66	884.00
384.79	857.00
384.93	822.67
385.06	823.67
385.19	837.00
385.33	970.67
385.46	872.67
385.59	796.67
385.72	850.00
385.86	780.67
385.99	821.33
386.12	823.67
386.25	802.00
386.39	887.33
386.52	900.33
386.65	833.33
386.79	812.33
386.92	817.00
387.05	921.67
387.18	788.00
387.32	792.67
387.45	881.00
387.58	858.00
387.71	817.67
387.85	809.00
387.98	863.67
388.11	883.00
388.25	840.00
388.38	831.00
388.51	876.33
388.64	892.00
388.78	814.33
388.91	790.00
389.04	845.33
389.17	955.33
389.31	848.00
389.44	864.67
389.57	911.67
389.70	866.00
389.84	816.00
389.97	807.33
390.10	817.67
390.24	865.00
390.37	824.33
390.50	813.67
390.63	905.67
390.77	847.67
390.90	841.67
391.03	823.33
391.16	789.00
391.30	825.00
391.43	822.00
391.56	825.67
391.69	806.33
391.83	895.33
391.96	845.00
392.09	823.00
392.22	935.67
392.36	866.67
392.49	799.00
392.62	826.00
392.75	867.67
392.89	911.67
393.02	798.67
393.15	801.00
393.28	778.00
393.42	930.33
393.55	792.00
393.68	811.67
393.81	772.33
393.95	825.33
394.08	811.67
394.21	806.00
394.34	889.67
394.48	873.67
394.61	875.67
394.74	843.33
394.87	888.67
395.01	864.67
395.14	861.67
395.27	804.00
395.40	942.00
395.54	937.67
395.67	831.67
395.80	819.00
395.93	873.67
396.07	817.00
396.20	810.00
396.33	769.67
396.46	821.67
396.59	848.67
396.73	838.33
396.86	804.67
396.99	892.33
397.12	852.67
397.26	848.33
397.39	824.67
397.52	1157.33
397.65	956.67
397.79	831.33
397.92	820.67
398.05	889.00
398.18	819.67
398.32	837.33
398.45	862.67
398.58	864.67
398.71	869.33
398.84	783.00
398.98	824.00
399.11	868.00
399.24	859.00
399.37	821.67
399.51	793.67
399.64	853.00
399.77	850.00
399.90	828.00
400.03	833.00
400.17	791.33
400.30	899.33
400.43	866.00
400.56	831.00
400.70	837.33
400.83	816.67
400.96	802.67
401.09	845.33
401.23	849.67
401.36	911.67
401.49	820.67
401.62	836.33
401.75	836.33
401.89	803.33
402.02	821.33
402.15	822.33
402.28	865.00
402.41	852.67
402.55	818.00
402.68	824.67
402.81	913.33
402.94	874.00
403.08	812.67
403.21	789.00
403.34	878.33
403.47	875.33
403.60	817.67
403.74	857.67
403.87	879.33
404.00	817.33
404.13	812.00
404.26	787.00
404.40	803.67
404.53	848.00
404.66	821.67
404.79	793.00
404.93	885.00
405.06	852.33
405.19	779.33
405.32	840.33
405.45	862.00
405.59	891.33
405.72	844.33
405.85	800.67
405.98	1011.00
406.11	815.00
406.25	802.00
406.38	813.67
406.51	872.67
406.64	838.33
406.77	789.67
406.91	791.00
407.04	862.33
407.17	834.00
407.30	845.33
407.43	822.67
407.57	927.33
407.70	909.00
407.83	806.33
407.96	828.33
408.09	799.33
408.23	927.67
408.36	829.00
408.49	819.67
408.62	960.67
408.75	858.33
408.89	808.00
409.02	851.67
409.15	848.33
409.28	925.67
409.41	855.67
409.55	807.00
409.68	956.00
409.81	861.00
409.94	816.33
410.07	843.00
410.20	856.00
410.34	830.33
410.47	831.67
410.60	844.33
410.73	871.00
410.86	812.00
411.00	836.67
411.13	801.67
411.26	853.00
411.39	848.67
411.52	850.33
411.66	818.67
411.79	827.00
411.92	806.67
412.05	824.33
412.18	815.00
412.31	863.33
412.45	881.00
412.58	863.33
412.71	794.33
412.84	865.67
412.97	925.00
413.11	837.00
413.24	854.67
413.37	886.33
413.50	955.00
413.63	844.67
413.76	824.33
413.90	874.67
414.03	831.00
414.16	818.00
414.29	846.67
414.42	839.33
414.56	965.00
414.69	816.67
414.82	823.67
414.95	840.67
415.08	866.33
415.21	826.00
415.35	846.67
415.48	762.00
415.61	891.33
415.74	888.00
415.87	797.00
416.00	863.67
416.14	976.33
416.27	845.67
416.40	803.67
416.53	834.67
416.66	873.00
416.79	842.33
416.93	805.67
417.06	896.67
417.19	844.67
417.32	820.33
417.45	810.67
417.58	786.33
417.72	889.67
417.85	804.67
417.98	826.33
418.11	879.67
418.24	821.00
418.37	811.33
418.51	834.33
418.64	849.67
418.77	919.67
418.90	840.00
419.03	792.00
419.16	867.33
419.29	883.67
419.43	808.00
419.56	790.33
419.69	960.00
419.82	896.33
419.95	837.33
420.08	873.00
420.22	915.00
420.35	973.33
420.48	878.33
420.61	824.33
420.74	788.67
420.87	883.00
421.00	793.67
421.14	818.00
421.27	895.00
421.40	919.33
421.53	853.67
421.66	834.00
421.79	832.33
421.93	838.67
422.06	830.00
422.19	808.33
422.32	897.67
422.45	887.33
422.58	850.00
422.71	815.33
422.85	893.67
422.98	881.33
423.11	789.00
423.24	768.00
423.37	805.00
423.50	819.33
423.63	829.00
423.77	803.67
423.90	813.33
424.03	870.00
424.16	870.00
424.29	827.33
424.42	794.00
424.55	815.33
424.69	793.00
424.82	833.00
424.95	852.00
425.08	811.00
425.21	859.00
425.34	813.67
425.47	841.00
425.60	863.33
425.74	781.33
425.87	810.00
426.00	842.33
426.13	860.33
426.26	802.00
426.39	802.00
426.52	828.00
426.66	913.00
426.79	856.33
426.92	809.00
427.05	946.33
427.18	898.67
427.31	824.67
427.44	820.33
427.57	806.33
427.71	838.33
427.84	796.33
427.97	825.33
428.10	887.33
428.23	847.67
428.36	816.67
428.49	744.67
428.62	974.00
428.76	942.67
428.89	848.33
429.02	783.67
429.15	840.67
429.28	934.33
429.41	817.33
429.54	827.67
429.67	826.67
429.81	860.67
429.94	834.00
430.07	819.33
430.20	885.67
430.33	903.00
430.46	796.33
430.59	797.67
430.72	843.00
430.85	793.00
430.99	827.00
431.12	792.00
431.25	901.33
431.38	929.00
431.51	848.33
431.64	842.00
431.77	930.67
431.90	926.33
432.03	839.00
432.17	804.00
432.30	861.67
432.43	866.33
432.56	823.33
432.69	847.33
432.82	851.67
432.95	904.33
433.08	835.00
433.21	837.33
433.35	827.67
433.48	840.33
433.61	794.67
433.74	827.67
433.87	811.33
434.00	873.00
434.13	803.00
434.26	865.00
434.39	867.33
434.53	879.67
434.66	825.00
434.79	820.00
434.92	826.67
435.05	919.00
435.18	814.33
435.31	848.00
435.44	911.33
435.57	859.33
435.70	827.33
435.84	792.00
435.97	910.67
436.10	962.00
436.23	813.67
436.36	803.00
436.49	835.00
436.62	864.00
436.75	822.33
436.88	853.67
437.01	819.67
437.14	812.33
437.28	788.33
437.41	812.33
437.54	907.33
437.67	885.00
437.80	821.67
437.93	793.67
438.06	965.67
438.19	884.67
438.32	797.67
438.45	804.67
438.58	878.33
438.72	926.33
438.85	880.67
438.98	829.33
439.11	868.67
439.24	917.67
439.37	900.33
439.50	860.67
439.63	892.67
439.76	818.67
439.89	799.67
440.02	809.67
440.15	870.00
440.29	918.00
440.42	836.67
440.55	824.33
440.68	932.00
440.81	982.67
440.94	834.67
441.07	837.33
441.20	933.33
441.33	851.67
441.46	818.00
441.59	812.33
441.72	842.00
441.85	849.33
441.99	874.00
442.12	862.67
442.25	940.00
442.38	879.33
442.51	863.67
442.64	797.00
442.77	847.33
442.90	826.00
443.03	792.00
443.16	816.00
443.29	849.33
443.42	918.67
443.55	821.00
443.68	840.00
443.82	798.33
443.95	830.33
444.08	821.33
444.21	828.33
444.34	818.33
444.47	847.00
444.60	832.67
444.73	842.67
444.86	844.33
444.99	914.67
445.12	861.67
445.25	836.33
445.38	843.00
445.51	884.67
445.64	837.00
445.78	806.00
445.91	795.00
446.04	959.33
446.17	882.33
446.30	787.67
446.43	871.67
446.56	853.33
446.69	810.67
446.82	811.67
446.95	889.33
447.08	900.67
447.21	841.00
447.34	816.33
447.47	903.67
447.60	885.00
447.73	835.33
447.86	867.67
447.99	858.00
448.13	863.33
448.26	882.67
448.39	825.00
448.52	882.67
448.65	892.67
448.78	835.00
448.91	829.00
449.04	868.67
449.17	836.33
449.30	867.67
449.43	846.33
449.56	845.00
449.69	920.33
449.82	830.00
449.95	787.00
450.08	906.00
450.21	877.00
450.34	848.00
450.47	831.33
450.60	887.00
450.73	852.33
450.87	818.67
451.00	857.00
451.13	884.33
451.26	1011.67
451.39	823.00
451.52	862.67
451.65	849.00
451.78	834.00
451.91	820.00
452.04	807.00
452.17	946.67
452.30	930.00
452.43	824.33
452.56	821.67
452.69	900.33
452.82	813.00
452.95	866.67
453.08	809.00
453.21	771.67
453.34	890.67
453.47	818.33
453.60	894.67
453.73	956.67
453.86	887.00
453.99	845.33
454.12	851.00
454.25	843.00
454.38	860.33
454.52	811.00
454.65	820.00
454.78	822.33
454.91	782.33
455.04	815.00
455.17	796.67
455.30	816.00
455.43	911.00
455.56	827.33
455.69	799.00
455.82	874.00
455.95	875.33
456.08	797.33
456.21	787.33
456.34	780.00
456.47	770.33
456.60	816.33
456.73	808.33
456.86	829.33
456.99	872.33
457.12	809.00
457.25	805.67
457.38	913.00
457.51	869.00
457.64	852.67
457.77	816.67
457.90	833.33
458.03	825.33
458.16	831.33
458.29	834.33
458.42	836.67
458.55	780.67
458.68	799.33
458.81	830.33
458.94	911.33
459.07	963.67
459.20	801.00
459.33	803.67
459.46	910.00
459.59	946.00
459.72	892.67
459.85	822.67
459.98	915.67
460.11	888.00
460.24	842.67
460.37	797.33
460.50	887.33
460.63	869.33
460.76	825.33
460.89	844.00
461.02	876.33
461.15	893.67
461.28	835.67
461.41	816.33
461.54	921.33
461.67	805.67
461.80	847.00
461.93	881.00
462.06	867.00
462.19	898.00
462.32	827.00
462.45	812.67
462.58	882.00
462.71	830.00
462.84	827.33
462.97	785.00
463.10	842.33
463.23	851.67
463.36	875.33
463.49	849.33
463.62	788.67
463.75	869.67
463.88	818.67
464.01	823.67
464.14	802.67
464.27	939.33
464.40	832.33
464.53	828.67
464.66	875.33
464.79	865.67
464.92	848.33
465.05	801.33
465.18	839.33
465.31	849.00
465.44	841.00
465.57	814.00
465.70	827.33
465.83	960.67
465.96	840.33
466.09	810.00
466.22	902.67
466.35	871.33
466.48	813.33
466.61	812.67
466.74	834.33
466.87	885.00
467.00	864.33
467.13	849.33
467.26	887.00
467.39	796.33
467.52	799.33
467.65	826.33
467.78	915.33
467.91	840.00
468.04	846.67
468.17	822.33
468.30	836.33
468.43	796.33
468.56	806.00
468.69	851.33
468.82	874.33
468.95	799.67
469.08	822.67
469.21	834.00
469.34	882.33
469.47	958.33
469.60	916.00
469.73	845.33
469.86	861.00
469.99	898.00
470.11	801.67
470.24	823.33
470.37	881.00
470.50	850.33
470.63	811.67
470.76	835.33
470.89	887.33
471.02	962.33
471.15	827.67
471.28	824.00
471.41	954.00
471.54	878.00
471.67	823.67
471.80	775.33
471.93	890.67
472.06	869.00
472.19	825.00
472.32	796.33
472.45	965.67
472.58	910.67
472.71	851.67
472.84	825.00
472.97	819.00
473.10	810.00
473.23	880.33
473.36	785.00
473.49	918.67
473.62	903.67
473.74	856.33
473.87	890.00
474.00	823.33
474.13	829.33
474.26	852.33
474.39	875.67
474.52	847.67
474.65	829.33
474.78	839.00
474.91	796.33
475.04	869.00
475.17	976.33
475.30	880.00
475.43	866.67
475.56	914.33
475.69	850.33
475.82	867.00
475.95	805.67
476.08	928.67
476.21	855.00
476.34	873.33
476.46	869.00
476.59	917.33
476.72	828.33
476.85	828.67
476.98	814.67
477.11	902.33
477.24	864.33
477.37	786.67
477.50	817.00
477.63	868.33
477.76	820.00
477.89	779.67
478.02	804.00
478.15	839.00
478.28	831.67
478.41	855.33
478.54	818.33
478.66	891.67
478.79	841.67
478.92	838.33
479.05	849.00
479.18	865.33
479.31	828.33
479.44	816.33
479.57	815.67
479.70	835.67
479.83	874.67
479.96	830.67
480.09	861.00
480.22	983.00
480.35	979.33
480.48	889.33
480.60	855.67
480.73	832.00
480.86	880.00
480.99	836.00
481.12	838.67
481.25	853.67
481.38	918.33
481.51	831.33
481.64	857.00
481.77	886.67
481.90	842.67
482.03	844.00
482.16	828.00
482.29	915.00
482.41	860.67
482.54	868.67
482.67	815.00
482.80	859.00
482.93	906.67
483.06	811.67
483.19	908.00
483.32	881.33
483.45	855.33
483.58	855.67
483.71	870.33
483.84	903.00
483.97	880.67
484.09	856.00
484.22	841.33
484.35	822.33
484.48	794.33
484.61	818.00
484.74	839.33
484.87	871.33
485.00	815.00
485.13	857.00
485.26	812.67
485.39	878.33
485.52	843.00
485.64	914.33
485.77	875.33
485.90	894.33
486.03	811.00
486.16	860.00
486.29	814.00
486.42	850.00
486.55	870.67
486.68	839.67
486.81	875.33
486.94	873.33
487.06	836.67
487.19	874.00
487.32	870.00
487.45	866.33
487.58	837.67
487.71	847.33
487.84	813.00
487.97	895.67
488.10	916.33
488.23	834.33
488.35	799.67
488.48	841.00
488.61	807.33
488.74	817.33
488.87	819.33
489.00	858.00
489.13	948.67
489.26	880.00
489.39	882.00
489.52	887.67
489.64	892.00
489.77	863.33
489.90	862.67
490.03	854.67
490.16	835.33
490.29	831.67
490.42	822.67
490.55	870.67
490.68	827.67
490.81	828.67
490.93	795.67
491.06	925.00
491.19	884.00
491.32	853.67
491.45	868.33
491.58	805.00
491.71	858.00
491.84	835.67
491.97	839.33
492.09	930.67
492.22	882.33
492.35	869.00
492.48	888.33
492.61	871.67
492.74	859.00
492.87	861.67
493.00	863.33
493.12	829.33
493.25	870.67
493.38	841.33
493.51	816.67
493.64	811.67
493.77	849.00
493.90	867.67
494.03	875.33
494.16	928.33
494.28	939.00
494.41	849.00
494.54	857.33
494.67	984.00
494.80	944.33
494.93	859.00
495.06	863.33
495.19	873.00
495.31	860.33
495.44	832.00
495.57	823.00
495.70	879.33
495.83	847.33
495.96	816.00
496.09	861.67
496.22	930.33
496.34	953.00
496.47	838.33
496.60	884.33
496.73	919.00
496.86	913.00
496.99	825.33
497.12	853.33
497.24	800.00
497.37	861.33
497.50	846.00
497.63	818.00
497.76	837.33
497.89	923.67
498.02	885.33
498.15	783.33
498.27	863.33
498.40	919.00
498.53	927.00
498.66	865.33
498.79	912.33
498.92	828.67
499.05	849.33
499.17	856.00
499.30	886.00
499.43	957.33
499.56	880.67
499.69	806.67
499.82	877.67
499.95	831.00
500.07	832.00
500.20	847.00
500.33	901.33
500.46	1014.00
500.59	865.00
500.72	869.67
500.85	929.00
500.97	908.00
501.10	901.33
501.23	810.00
501.36	876.00
501.49	938.67
501.62	886.33
501.75	855.00
501.87	918.00
502.00	809.67
502.13	879.67
502.26	866.00
502.39	831.33
502.52	849.67
502.64	811.33
502.77	840.33
502.90	898.33
503.03	861.00
503.16	838.33
503.29	834.33
503.42	915.33
503.54	888.33
503.67	858.33
503.80	865.33
503.93	917.00
504.06	823.00
504.19	846.33
504.31	919.67
504.44	880.67
504.57	892.67
504.70	875.33
504.83	814.33
504.96	892.00
505.08	862.33
505.21	865.33
505.34	968.33
505.47	922.67
505.60	917.67
505.73	905.67
505.85	902.33
505.98	1013.33
506.11	861.00
506.24	822.33
506.37	823.33
506.50	877.33
506.62	910.33
506.75	851.67
506.88	838.33
507.01	878.67
507.14	819.67
507.27	850.33
507.39	826.67
507.52	845.33
507.65	846.33
507.78	862.67
507.91	828.33
508.04	938.00
508.16	922.67
508.29	873.33
508.42	843.00
508.55	845.00
508.68	845.67
508.81	897.33
508.93	844.00
509.06	850.67
509.19	903.67
509.32	884.33
509.45	870.00
509.57	881.33
509.70	839.33
509.83	864.00
509.96	827.67
510.09	880.00
510.22	870.33
510.34	867.33
510.47	854.67
510.60	971.00
510.73	885.67
510.86	883.67
510.98	852.33
511.11	852.33
511.24	925.00
511.37	892.67
511.50	850.67
511.63	880.33
511.75	876.33
511.88	855.00
512.01	887.33
512.14	884.00
512.27	878.33
512.39	853.67
512.52	848.00
512.65	875.67
512.78	833.33
512.91	861.00
513.03	867.00
513.16	903.33
513.29	885.67
513.42	842.33
513.55	818.33
513.67	899.00
513.80	817.33
513.93	839.67
514.06	851.00
514.19	892.67
514.31	885.33
514.44	909.67
514.57	849.00
514.70	876.00
514.83	941.00
514.95	839.67
515.08	865.00
515.21	889.00
515.34	891.33
515.47	874.00
515.59	842.00
515.72	896.33
515.85	886.67
515.98	915.67
516.11	860.67
516.23	916.33
516.36	936.00
516.49	888.00
516.62	867.00
516.75	945.67
516.87	945.00
517.00	848.00
517.13	888.33
517.26	933.33
517.39	894.33
517.51	808.33
517.64	868.67
517.77	958.33
517.90	841.33
518.02	865.33
518.15	832.33
518.28	794.67
518.41	874.67
518.54	874.67
518.66	876.33
518.79	838.67
518.92	863.00
519.05	836.33
519.18	856.33
519.30	904.67
519.43	825.67
519.56	839.33
519.69	850.00
519.81	915.67
519.94	856.33
520.07	801.00
520.20	846.00
520.33	881.67
520.45	939.33
520.58	880.67
520.71	889.00
520.84	924.67
520.96	886.33
521.09	856.00
521.22	838.00
521.35	912.33
521.48	906.67
521.60	847.00
521.73	872.33
521.86	925.67
521.99	969.33
522.11	891.67
522.24	866.33
522.37	890.67
522.50	882.67
522.62	917.67
522.75	818.33
522.88	890.33
523.01	860.00
523.14	896.00
523.26	888.67
523.39	952.67
523.52	855.00
523.65	974.67
523.77	909.33
523.90	881.67
524.03	859.33
524.16	865.00
524.28	850.00
524.41	859.00
524.54	874.00
524.67	834.00
524.79	848.33
524.92	896.33
525.05	941.00
525.18	832.00
525.31	907.00
525.43	841.67
525.56	992.67
525.69	856.00
525.82	808.67
525.94	926.33
526.07	915.00
526.20	901.33
526.33	909.33
526.45	1008.67
526.58	979.00
526.71	890.67
526.84	866.33
526.96	879.33
527.09	843.00
527.22	851.00
527.35	858.33
527.47	833.33
527.60	945.33
527.73	840.67
527.86	903.67
527.98	897.67
528.11	890.00
528.24	828.33
528.37	857.00
528.49	839.00
528.62	877.33
528.75	899.00
528.88	837.00
529.00	909.67
529.13	935.00
529.26	877.67
529.39	909.67
529.51	1012.67
529.64	989.67
529.77	851.67
529.90	858.00
530.02	869.67
530.15	851.00
530.28	807.67
530.40	836.00
530.53	869.00
530.66	914.33
530.79	856.67
530.91	870.67
531.04	859.67
531.17	871.33
531.30	866.33
531.42	872.67
531.55	884.33
531.68	940.67
531.81	855.33
531.93	865.33
532.06	885.67
532.19	836.33
532.31	866.00
532.44	869.33
532.57	895.00
532.70	844.67
532.82	873.67
532.95	893.00
533.08	947.00
533.21	913.33
533.33	846.67
533.46	847.33
533.59	870.33
533.71	992.00
533.84	880.33
533.97	851.33
534.10	853.00
534.22	849.67
534.35	872.67
534.48	872.00
534.61	911.33
534.73	797.67
534.86	832.00
534.99	871.33
535.11	927.67
535.24	897.67
535.37	848.67
535.50	833.00
535.62	848.67
535.75	949.00
535.88	874.00
536.00	846.67
536.13	854.33
536.26	864.67
536.39	849.00
536.51	819.33
536.64	898.33
536.77	867.00
536.89	858.67
537.02	875.67
537.15	895.33
537.28	875.67
537.40	866.67
537.53	845.67
537.66	916.00
537.78	886.00
537.91	824.67
538.04	846.33
538.17	911.33
538.29	891.00
538.42	945.33
538.55	930.00
538.67	918.67
538.80	863.33
538.93	890.67
539.05	877.33
539.18	947.33
539.31	921.33
539.44	878.00
539.56	801.33
539.69	882.67
539.82	854.00
539.94	857.33
540.07	851.00
540.20	941.33
540.32	846.33
540.45	869.33
540.58	864.00
540.71	921.33
540.83	830.67
540.96	859.33
541.09	865.67
541.21	946.33
541.34	945.67
541.47	840.33
541.59	864.67
541.72	947.67
541.85	1027.00
541.98	931.00
542.10	865.00
542.23	891.33
542.36	971.33
542.48	885.67
542.61	871.33
542.74	833.67
542.86	856.67
542.99	869.67
543.12	849.00
543.24	883.00
543.37	821.33
543.50	853.00
543.62	844.00
543.75	872.67
543.88	873.67
544.01	882.67
544.13	899.67
544.26	911.67
544.39	851.33
544.51	852.33
544.64	840.67
544.77	912.00
544.89	875.33
545.02	874.33
545.15	841.33
545.27	972.33
545.40	934.33
545.53	906.67
545.65	902.67
545.78	812.67
545.91	840.33
546.03	859.00
546.16	860.33
546.29	859.67
546.41	835.33
546.54	850.67
546.67	843.67
546.79	918.67
546.92	952.67
547.05	822.33
547.17	879.00
547.30	850.00
547.43	901.67
547.56	829.00
547.68	857.00
547.81	827.33
547.94	891.67
548.06	865.67
548.19	839.00
548.32	949.00
548.44	888.00
548.57	887.00
548.70	911.00
548.82	920.33
548.95	906.00
549.08	878.00
549.20	864.00
549.33	973.33
549.45	885.33
549.58	862.67
549.71	828.00
549.83	922.33
549.96	834.67
550.09	874.00
550.21	862.33
550.34	900.00
550.47	875.00
550.59	859.00
550.72	802.00
550.85	873.00
550.97	944.67
551.10	855.33
551.23	855.00
551.35	944.67
551.48	900.67
551.61	872.00
551.73	857.33
551.86	960.33
551.99	954.67
552.11	873.67
552.24	898.33
552.37	895.33
552.49	853.33
552.62	850.67
552.75	901.33
552.87	869.00
553.00	871.00
553.12	906.00
553.25	864.00
553.38	905.67
553.50	939.67
553.63	870.67
553.76	818.00
553.88	880.67
554.01	865.67
554.14	862.00
554.26	904.67
554.39	953.67
554.52	883.00
554.64	874.00
554.77	852.33
554.89	911.33
555.02	945.33
555.15	900.33
555.27	873.67
555.40	879.67
555.53	935.00
555.65	866.67
555.78	844.00
555.91	916.33
556.03	947.33
556.16	847.67
556.29	882.67
556.41	947.67
556.54	950.67
556.66	880.00
556.79	859.67
556.92	899.67
557.04	899.33
557.17	860.67
557.30	854.67
557.42	865.33
557.55	883.00
557.67	889.67
557.80	865.67
557.93	887.00
558.05	899.67
558.18	837.67
558.31	878.33
558.43	929.67
558.56	903.67
558.68	875.33
558.81	844.00
558.94	864.33
559.06	996.67
559.19	870.33
559.32	863.33
559.44	846.33
559.57	889.00
559.69	845.00
559.82	845.00
559.95	860.33
560.07	865.33
560.20	793.67
560.33	877.33
560.45	902.00
560.58	826.00
560.70	880.00
560.83	844.67
560.96	865.00
561.08	878.00
561.21	903.67
561.33	841.00
561.46	826.67
561.59	930.00
561.71	862.33
561.84	887.67
561.97	834.67
562.09	911.00
562.22	850.33
562.34	849.00
562.47	911.00
562.60	901.00
562.72	876.00
562.85	880.33
562.97	870.33
563.10	876.33
563.23	831.67
563.35	838.33
563.48	902.00
563.60	881.33
563.73	902.67
563.86	821.33
563.98	839.33
564.11	875.67
564.23	855.67
564.36	927.00
564.49	889.67
564.61	946.67
564.74	893.67
564.86	854.67
564.99	936.00
565.12	914.67
565.24	918.67
565.37	920.67
565.49	928.67
565.62	950.67
565.75	905.00
565.87	844.00
566.00	1026.00
566.12	951.33
566.25	895.67
566.38	909.00
566.50	892.00
566.63	937.00
566.75	875.33
566.88	861.33
567.01	851.33
567.13	874.33
567.26	864.33
567.38	856.67
567.51	933.33
567.64	861.67
567.76	884.33
567.89	899.33
568.01	846.67
568.14	832.67
568.26	873.67
568.39	877.00
568.52	880.00
568.64	922.67
568.77	871.33
568.89	850.00
569.02	861.00
569.15	878.00
569.27	864.33
569.40	890.67
569.52	918.00
569.65	871.67
569.77	864.33
569.90	819.00
570.03	830.00
570.15	948.67
570.28	876.00
570.40	868.33
570.53	873.67
570.66	944.33
570.78	912.33
570.91	885.33
571.03	832.00
571.16	879.33
571.28	833.00
571.41	815.33
571.54	818.67
571.66	819.67
571.79	848.67
571.91	854.33
572.04	834.67
572.16	904.33
572.29	910.33
572.42	853.33
572.54	895.33
572.67	845.33
572.79	882.33
572.92	863.33
573.04	908.67
573.17	936.33
573.29	888.00
573.42	864.00
573.55	920.67
573.67	907.67
573.80	866.33
573.92	841.67
574.05	889.00
574.17	940.67
574.30	869.67
574.43	857.67
574.55	859.67
574.68	883.67
574.80	855.33
574.93	864.67
575.05	835.67
575.18	869.33
575.30	871.33
575.43	903.00
575.56	943.00
575.68	902.67
575.81	863.67
575.93	848.00
576.06	906.33
576.18	916.67
576.31	877.67
576.43	854.33
576.56	973.67
576.69	927.00
576.81	897.33
576.94	859.67
577.06	885.33
577.19	923.67
577.31	895.67
577.44	895.00
577.56	939.33
577.69	893.33
577.82	891.67
577.94	857.00
578.07	825.00
578.19	907.67
578.32	899.33
578.44	849.00
578.57	876.33
578.69	930.33
578.82	897.00
578.94	921.67
579.07	924.33
579.19	924.33
579.32	890.67
579.45	890.67
579.57	877.00
579.70	845.67
579.82	889.33
579.95	861.33
580.07	960.67
580.20	883.67
580.32	882.33
580.45	904.67
580.57	935.00
580.70	892.33
580.82	899.00
580.95	912.67
581.08	844.33
581.20	932.33
581.33	861.00
581.45	891.67
581.58	892.33
581.70	909.33
581.83	807.33
581.95	885.67
582.08	914.00
582.20	876.67
582.33	874.00
582.45	860.67
582.58	875.33
582.70	914.67
582.83	856.33
582.95	880.67
583.08	930.33
583.21	940.00
583.33	893.00
583.46	862.67
583.58	838.67
583.71	915.67
583.83	895.33
583.96	899.33
584.08	910.67
584.21	920.67
584.33	915.33
584.46	880.00
584.58	849.00
584.71	912.33
584.83	911.00
584.96	890.67
585.08	871.00
585.21	993.67
585.33	946.67
585.46	908.00
585.58	934.00
585.71	879.00
585.83	892.33
585.96	918.00
586.08	922.33
586.21	911.00
586.33	921.67
586.46	846.33
586.59	920.00
586.71	866.67
586.84	896.67
586.96	888.67
587.09	826.67
587.21	876.33
587.34	912.67
587.46	853.67
587.59	832.33
587.71	890.33
587.84	855.67
587.96	824.33
588.09	843.33
588.21	914.33
588.34	874.67
588.46	897.00
588.59	858.33
588.71	900.33
588.84	901.67
588.96	873.00
589.09	976.67
589.21	897.33
589.34	859.00
589.46	879.00
589.59	891.00
589.71	950.00
589.84	846.00
589.96	856.33
590.09	878.33
590.21	917.00
590.34	890.67
590.46	898.33
590.59	870.00
590.71	886.00
590.84	924.67
590.96	855.00
591.09	912.33
591.21	899.00
591.34	872.67
591.46	870.67
591.59	961.00
591.71	927.67
591.83	886.67
591.96	830.33
592.08	874.00
592.21	914.33
592.33	900.00
592.46	885.33
592.58	905.67
592.71	932.67
592.83	971.67
592.96	914.00
593.08	942.33
593.21	848.67
593.33	848.00
593.46	881.00
593.58	884.00
593.71	935.33
593.83	925.67
593.96	858.67
594.08	1011.00
594.21	902.33
594.33	874.00
594.46	852.67
594.58	846.00
594.71	816.00
594.83	890.67
594.96	876.00
595.08	1059.33
595.20	926.67
595.33	901.33
595.45	854.00
595.58	978.67
595.70	905.67
595.83	873.33
595.95	889.33
596.08	900.00
596.20	845.33
596.33	841.67
596.45	888.33
596.58	867.67
596.70	851.67
596.83	874.00
596.95	866.33
597.08	897.67
597.20	845.00
597.32	860.00
597.45	896.67
597.57	882.67
597.70	926.33
597.82	872.00
597.95	880.33
598.07	881.33
598.20	906.67
598.32	887.00
598.45	868.00
598.57	930.67
598.70	960.67
598.82	872.67
598.94	871.33
599.07	936.00
599.19	887.67
599.32	871.67
599.44	796.00
599.57	924.33
599.69	910.67
599.82	869.00
599.94	852.67
600.07	954.67
600.19	913.33
600.31	867.00
600.44	913.33
600.56	1014.67
600.69	993.00
600.81	870.00
600.94	881.67
601.06	900.33
601.19	929.33
601.31	924.00
601.44	836.67
601.56	957.33
601.68	925.67
601.81	904.67
601.93	898.00
602.06	931.00
602.18	858.00
602.31	877.67
602.43	947.33
602.56	928.33
602.68	905.67
602.80	907.33
602.93	901.67
603.05	876.00
603.18	895.00
603.30	854.00
603.43	858.67
603.55	892.67
603.68	920.67
603.80	893.67
603.92	885.00
604.05	874.67
604.17	878.67
604.30	847.67
604.42	868.00
604.55	883.67
604.67	934.33
604.79	877.67
604.92	877.33
605.04	887.33
605.17	878.00
605.29	859.67
605.42	866.00
605.54	967.67
605.66	907.67
605.79	904.33
605.91	883.67
606.04	891.33
606.16	872.00
606.29	884.67
606.41	849.33
606.53	886.67
606.66	850.00
606.78	884.67
606.91	875.67
607.03	874.00
607.16	879.33
607.28	858.00
607.40	892.67
607.53	915.33
607.65	847.00
607.78	855.67
607.90	889.33
608.03	1015.33
608.15	907.33
608.27	907.00
608.40	843.00
608.52	905.33
608.65	896.67
608.77	922.67
608.89	882.67
609.02	979.33
609.14	992.67
609.27	920.67
609.39	920.33
609.52	868.67
609.64	830.00
609.76	862.33
609.89	881.67
610.01	957.67
610.14	926.67
610.26	893.00
610.38	851.00
610.51	944.33
610.63	880.33
610.76	853.67
610.88	918.67
611.01	954.67
611.13	993.00
611.25	929.33
611.38	858.67
611.50	897.00
611.63	923.33
611.75	897.00
611.87	915.67
612.00	884.00
612.12	941.33
612.25	883.67
612.37	850.33
612.49	971.67
612.62	946.67
612.74	961.00
612.87	901.00
612.99	895.33
613.11	844.67
613.24	879.67
613.36	886.33
613.49	911.67
613.61	911.67
613.73	863.33
613.86	933.33
613.98	867.67
614.11	934.00
614.23	933.00
614.35	933.33
614.48	940.00
614.60	922.33
614.72	880.33
614.85	903.67
614.97	909.33
615.10	914.00
615.22	896.00
615.34	903.00
615.47	958.67
615.59	870.67
615.72	889.33
615.84	908.67
615.96	871.00
616.09	991.00
616.21	892.67
616.34	867.67
616.46	888.00
616.58	925.67
616.71	916.00
616.83	936.00
616.95	920.67
617.08	928.67
617.20	885.00
617.33	852.67
617.45	888.67
617.57	923.33
617.70	907.33
617.82	881.33
617.95	890.33
618.07	968.67
618.19	908.67
618.32	903.33
618.44	878.00
618.56	865.33
618.69	820.33
618.81	838.67
618.94	939.33
619.06	896.67
619.18	890.33
619.31	849.00
619.43	857.33
619.55	922.33
619.68	912.00
619.80	854.33
619.92	921.67
620.05	1035.67
620.17	947.00
620.30	893.67
620.42	908.67
620.54	938.67
620.67	875.00
620.79	898.33
620.91	925.33
621.04	968.33
621.16	886.67
621.29	874.33
621.41	845.00
621.53	879.00
621.66	884.67
621.78	876.67
621.90	940.67
622.03	1004.33
622.15	904.67
622.27	889.67
622.40	910.00
622.52	876.33
622.64	867.67
622.77	857.67
622.89	918.67
623.02	939.33
623.14	906.67
623.26	915.67
623.39	912.33
623.51	952.00
623.63	893.67
623.76	857.33
623.88	963.33
624.00	910.67
624.13	860.33
624.25	855.00
624.37	853.33
624.50	954.67
624.62	916.00
624.75	850.67
624.87	847.00
624.99	882.33
625.12	868.00
625.24	871.33
625.36	989.67
625.49	934.33
625.61	904.33
625.73	905.67
625.86	944.33
625.98	894.33
626.10	868.33
626.23	842.33
626.35	915.33
626.47	883.67
626.60	854.33
626.72	866.00
626.84	874.67
626.97	916.67
627.09	895.00
627.21	888.00
627.34	1022.67
627.46	1012.67
627.58	900.33
627.71	915.67
627.83	943.67
627.95	865.33
628.08	891.00
628.20	937.67
628.32	849.00
628.45	817.33
628.57	831.33
628.69	855.67
628.82	913.67
628.94	948.33
629.06	895.33
629.19	876.67
629.31	938.33
629.43	865.00
629.56	920.67
629.68	891.67
629.80	946.67
629.93	857.33
630.05	865.33
630.17	850.67
630.30	888.00
630.42	879.00
630.54	922.67
630.67	894.33
630.79	871.00
630.91	1034.00
631.04	915.00
631.16	904.67
631.28	910.67
631.41	874.00
631.53	858.00
631.65	894.67
631.78	924.00
631.90	915.33
632.02	884.00
632.14	812.67
632.27	963.67
632.39	899.00
632.51	865.00
632.64	937.33
632.76	900.33
632.88	884.67
633.01	904.33
633.13	876.00
633.25	904.67
633.38	1004.67
633.50	828.33
633.62	835.33
633.75	833.67
633.87	818.67
633.99	904.00
634.11	842.67
634.24	872.67
634.36	888.00
634.48	879.00
634.61	873.00
634.73	924.33
634.85	885.67
634.98	877.00
635.10	868.67
635.22	894.00
635.35	1013.67
635.47	903.00
635.59	883.33
635.71	915.67
635.84	942.00
635.96	873.33
636.08	919.00
636.21	863.67
636.33	901.67
636.45	892.67
636.58	867.33
636.70	841.00
636.82	928.00
636.94	863.00
637.07	832.33
637.19	929.67
637.31	919.33
637.44	919.67
637.56	841.67
637.68	906.00
637.81	908.33
637.93	899.67
638.05	851.00
638.17	953.33
638.30	1029.00
638.42	891.67
638.54	859.00
638.67	889.67
638.79	893.00
638.91	857.00
639.03	871.00
639.16	874.00
639.28	900.00
639.40	892.33
639.53	867.00
639.65	927.33
639.77	893.33
639.89	889.00
640.02	880.67
640.14	915.67
640.26	860.67
640.39	920.33
640.51	871.33
640.63	925.67
640.75	949.00
640.88	890.00
641.00	865.67
641.12	874.33
641.24	984.00
641.37	874.33
641.49	852.67
641.61	1008.00
641.74	872.67
641.86	902.00
641.98	851.33
642.10	913.67
642.23	922.67
642.35	871.33
642.47	905.67
642.60	900.00
642.72	927.67
642.84	832.00
642.96	846.67
643.09	846.33
643.21	842.00
643.33	848.67
643.45	862.67
643.58	956.67
643.70	985.00
643.82	869.67
643.94	866.67
644.07	907.00
644.19	912.00
644.31	898.00
644.44	892.67
644.56	895.33
644.68	860.33
644.80	848.67
644.93	853.67
645.05	866.33
645.17	909.33
645.29	913.00
645.42	899.33
645.54	896.33
645.66	916.67
645.78	882.00
645.91	872.33
646.03	932.67
646.15	975.00
646.27	865.00
646.40	893.33
646.52	929.00
646.64	942.67
646.76	889.00
646.89	827.33
647.01	927.00
647.13	921.33
647.25	927.67
647.38	877.67
647.50	847.67
647.62	938.67
647.74	838.00
647.87	849.00
647.99	908.67
648.11	933.67
648.23	891.67
648.36	834.33
648.48	969.67
648.60	900.00
648.72	866.33
648.85	854.00
648.97	936.00
649.09	920.33
649.21	867.00
649.34	906.00
649.46	921.67
649.58	921.33
649.70	915.67
649.83	870.33
649.95	921.33
650.07	936.33
650.19	937.00
650.32	894.00
650.44	956.33
650.56	914.00
650.68	876.67
650.81	878.33
650.93	886.67
651.05	959.67
651.17	861.00
651.29	903.67
651.42	890.00
651.54	930.33
651.66	860.00
651.78	873.00
651.91	933.67
652.03	1018.33
652.15	923.33
652.27	865.00
652.40	893.67
652.52	884.00
652.64	895.33
652.76	873.33
652.88	996.67
653.01	902.00
653.13	857.67
653.25	828.00
653.37	938.00
653.50	950.00
653.62	915.00
653.74	839.00
653.86	934.33
653.98	932.33
654.11	858.67
654.23	883.67
654.35	895.00
654.47	1038.00
654.60	883.33
654.72	875.67
654.84	861.00
654.96	951.00
655.08	875.33
655.21	910.00
655.33	907.67
655.45	957.67
655.57	912.33
655.70	890.33
655.82	936.67
655.94	982.00
656.06	922.33
656.18	855.33
656.31	961.67
656.43	938.67
656.55	866.33
656.67	882.33
656.79	905.33
656.92	955.33
657.04	910.67
657.16	878.33
657.28	1020.00
657.40	922.00
657.53	925.33
657.65	880.33
657.77	955.33
657.89	961.67
658.01	889.67
658.14	858.67
658.26	926.00
658.38	894.00
658.50	853.67
658.62	869.67
658.75	1042.00
658.87	943.00
658.99	930.00
659.11	864.00
659.23	945.33
659.36	1012.00
659.48	945.00
659.60	932.67
659.72	914.33
659.84	918.33
659.97	935.33
660.09	938.00
660.21	1020.67
660.33	960.67
660.45	852.00
660.58	830.33
660.70	880.67
660.82	892.33
660.94	852.33
661.06	885.67
661.19	961.33
661.31	944.33
661.43	887.00
661.55	885.67
661.67	952.67
661.80	991.00
661.92	900.33
662.04	911.33
662.16	908.00
662.28	962.33
662.40	899.33
662.53	904.33
662.65	934.33
662.77	880.67
662.89	893.00
663.01	874.67
663.14	895.33
663.26	927.33
663.38	891.33
663.50	867.67
663.62	882.33
663.74	906.67
663.87	880.00
663.99	921.00
664.11	945.33
664.23	1037.00
664.35	894.67
664.48	889.33
664.60	903.67
664.72	912.00
664.84	869.67
664.96	887.33
665.08	974.00
665.21	929.67
665.33	923.33
665.45	849.00
665.57	908.33
665.69	990.00
665.81	898.67
665.94	866.00
666.06	879.33
666.18	931.67
666.30	879.00
666.42	881.67
666.54	922.00
666.67	933.00
666.79	863.33
666.91	931.33
667.03	897.00
667.15	870.33
667.27	895.00
667.40	869.33
667.52	890.33
667.64	950.33
667.76	879.33
667.88	861.67
668.00	937.67
668.13	951.00
668.25	869.67
668.37	866.33
668.49	892.67
668.61	959.33
668.73	892.33
668.85	905.00
668.98	924.67
669.10	920.67
669.22	885.67
669.34	883.33
669.46	955.33
669.58	898.00
669.71	906.33
669.83	899.00
669.95	902.33
670.07	911.00
670.19	879.00
670.31	892.67
670.43	892.33
670.56	933.33
670.68	958.67
670.80	919.33
670.92	907.33
671.04	983.67
671.16	887.67
671.28	883.00
671.41	894.33
671.53	945.33
671.65	894.67
671.77	893.67
671.89	1060.00
672.01	1020.00
672.13	946.67
672.26	869.00
672.38	917.33
672.50	877.67
672.62	904.67
672.74	918.33
672.86	902.00
672.98	933.00
673.11	911.67
673.23	919.33
673.35	973.33
673.47	909.00
673.59	896.67
673.71	850.33
673.83	929.00
673.96	1028.33
674.08	897.33
674.20	858.33
674.32	906.00
674.44	911.67
674.56	925.67
674.68	927.67
674.80	945.67
674.93	914.33
675.05	909.33
675.17	910.33
675.29	944.33
675.41	965.33
675.53	908.33
675.65	892.00
675.77	903.67
675.90	966.33
676.02	878.67
676.14	868.67
676.26	985.67
676.38	1015.00
676.50	908.00
676.62	927.00
676.74	869.00
676.87	890.67
676.99	920.00
677.11	959.33
677.23	928.33
677.35	941.67
677.47	862.33
677.59	880.33
677.71	932.00
677.83	954.00
677.96	909.33
678.08	911.33
678.20	910.33
678.32	884.33
678.44	906.33
678.56	896.00
678.68	1063.33
678.80	965.00
678.93	895.33
679.05	907.00
679.17	907.00
679.29	971.67
679.41	919.33
679.53	881.67
679.65	881.67
679.77	922.67
679.89	900.00
680.01	937.00
680.14	948.00
680.26	854.00
680.38	893.33
680.50	938.67
680.62	1004.00
680.74	949.00
680.86	905.67
680.98	915.67
681.10	944.33
681.22	1016.67
681.35	898.33
681.47	894.67
681.59	885.67
681.71	1019.00
681.83	908.00
681.95	868.00
682.07	968.33
682.19	933.67
682.31	903.00
682.43	876.00
682.56	950.33
682.68	862.67
682.80	874.00
682.92	930.33
683.04	927.33
683.16	895.33
683.28	870.33
683.40	936.33
683.52	912.67
683.64	944.00
683.76	869.00
683.89	888.67
684.01	911.67
684.13	992.33
684.25	916.33
684.37	921.00
684.49	951.67
684.61	906.67
684.73	909.33
684.85	894.33
684.97	880.33
685.09	982.00
685.21	877.33
685.34	912.67
685.46	1054.67
685.58	942.67
685.70	927.00
685.82	960.67
685.94	887.00
686.06	893.33
686.18	874.67
686.30	894.00
686.42	871.67
686.54	949.67
686.66	881.33
686.79	991.00
686.91	939.33
687.03	1045.00
687.15	951.00
687.27	897.67
687.39	920.67
687.51	1002.33
687.63	929.33
687.75	961.00
687.87	941.00
687.99	1000.00
688.11	888.33
688.23	929.33
688.35	957.67
688.48	952.33
688.60	893.00
688.72	903.00
688.84	934.00
688.96	957.00
689.08	931.00
689.20	905.67
689.32	1041.00
689.44	943.00
689.56	868.67
689.68	894.00
689.80	902.00
689.92	889.67
690.04	889.33
690.16	945.00
690.28	948.00
690.41	939.00
690.53	880.33
690.65	942.33
690.77	978.67
690.89	970.00
691.01	917.67
691.13	894.00
691.25	885.00
691.37	913.00
691.49	871.67
691.61	868.67
691.73	1008.67
691.85	930.67
691.97	906.00
692.09	881.33
692.21	974.33
692.33	1001.67
692.45	934.33
692.57	897.67
692.70	928.33
692.82	951.33
692.94	858.67
693.06	901.33
693.18	924.67
693.30	917.33
693.42	895.67
693.54	925.33
693.66	941.33
693.78	944.67
693.90	899.00
694.02	918.67
694.14	950.00
694.26	910.67
694.38	932.33
694.50	931.00
694.62	933.00
694.74	878.00
694.86	888.00
694.98	914.00
695.10	942.33
695.22	983.00
695.34	897.33
695.46	889.67
695.58	907.67
695.71	943.67
695.83	900.67
695.95	896.33
696.07	994.33
696.19	890.67
696.31	896.00
696.43	879.00
696.55	1018.33
696.67	935.33
696.79	897.00
696.91	914.67
697.03	917.33
697.15	1013.67
697.27	946.00
697.39	903.33
697.51	968.67
697.63	883.67
697.75	892.00
697.87	920.67
697.99	878.67
698.11	845.67
698.23	880.00
698.35	895.67
698.47	919.33
698.59	942.00
698.71	910.33
698.83	950.00
698.95	893.33
699.07	931.67
699.19	891.67
699.31	911.33
699.43	888.33
699.55	949.67
699.67	897.33
699.79	914.67
699.91	891.00
700.03	930.33
700.15	924.33
700.27	893.00
700.39	916.00
700.51	873.67
700.63	895.33
700.75	899.00
700.87	949.33
700.99	911.67
701.11	938.00
701.24	919.33
701.36	970.00
701.48	964.33
701.60	949.33
701.72	886.00
701.84	994.00
701.96	936.00
702.08	914.00
702.20	1009.67
702.32	960.33
702.44	964.67
702.56	916.67
702.68	915.00
702.80	934.00
702.92	1025.00
703.04	989.00
703.16	921.67
703.28	936.67
703.40	918.33
703.52	941.00
703.64	934.33
703.76	950.67
703.88	914.33
704.00	910.00
704.12	924.67
704.24	987.00
704.36	945.67
704.48	935.33
704.60	881.67
704.72	917.33
704.84	911.67
704.96	949.33
705.07	928.67
705.19	892.67
705.31	912.00
705.43	955.00
705.55	895.33
705.67	934.00
705.79	929.33
705.91	857.67
706.03	918.33
706.15	926.33
706.27	909.00
706.39	903.00
706.51	883.33
706.63	912.00
706.75	967.33
706.87	934.33
706.99	991.67
707.11	934.00
707.23	913.67
707.35	949.67
707.47	915.33
707.59	958.67
707.71	968.67
707.83	921.00
707.95	970.33
708.07	932.67
708.19	1054.67
708.31	935.33
708.43	892.00
708.55	948.33
708.67	991.00
708.79	932.67
708.91	962.33
709.03	950.33
709.15	985.00
709.27	898.00
709.39	923.67
709.51	919.33
709.63	957.67
709.75	954.67
709.87	879.67
709.99	976.00
710.11	911.33
710.23	912.33
710.35	874.67
710.47	1033.33
710.58	999.00
710.70	979.67
710.82	971.33
710.94	937.67
711.06	936.33
711.18	938.00
711.30	911.00
711.42	974.33
711.54	939.33
711.66	946.33
711.78	895.33
711.90	973.33
712.02	1003.33
712.14	904.00
712.26	883.67
712.38	982.33
712.50	1005.00
712.62	917.33
712.74	894.67
712.86	911.33
712.98	989.33
713.10	913.00
713.22	892.00
713.34	942.67
713.45	914.00
713.57	932.67
713.69	893.00
713.81	923.00
713.93	945.00
714.05	916.33
714.17	874.67
714.29	1011.00
714.41	984.33
714.53	918.00
714.65	936.33
714.77	930.00
714.89	877.67
715.01	977.33
715.13	906.67
715.25	951.00
715.37	904.67
715.49	872.67
715.61	934.33
715.72	952.67
715.84	1001.00
715.96	928.33
716.08	907.33
716.20	1007.00
716.32	984.67
716.44	919.33
716.56	927.33
716.68	943.33
716.80	1042.33
716.92	993.00
717.04	950.00
717.16	968.00
717.28	935.67
717.40	910.00
717.52	922.33
717.63	910.33
717.75	953.00
717.87	944.00
717.99	939.33
718.11	922.33
718.23	1002.00
718.35	953.00
718.47	941.67
718.59	905.67
718.71	933.33
718.83	913.33
718.95	964.00
719.07	897.00
719.19	921.00
719.30	920.67
719.42	944.33
719.54	930.67
719.66	944.67
719.78	933.33
719.90	866.67
720.02	930.00
720.14	960.67
720.26	964.00
720.38	962.67
720.50	915.67
720.62	857.33
720.74	919.67
720.85	933.33
720.97	1008.33
721.09	1045.67
721.21	939.33
721.33	1006.33
721.45	945.33
721.57	959.00
721.69	906.00
721.81	884.67
721.93	1000.33
722.05	954.00
722.16	893.67
722.28	877.33
722.40	906.67
722.52	983.00
722.64	995.33
722.76	898.33
722.88	964.33
723.00	967.67
723.12	912.33
723.24	948.00
723.36	886.33
723.47	984.67
723.59	944.67
723.71	919.00
723.83	957.67
723.95	921.33
724.07	934.67
724.19	947.33
724.31	1030.67
724.43	907.67
724.55	863.67
724.66	900.33
724.78	1087.33
724.90	901.67
725.02	890.67
725.14	908.67
725.26	943.67
725.38	880.67
725.50	921.67
725.62	956.33
725.74	941.33
725.85	926.33
725.97	927.00
726.09	996.00
726.21	1259.67
726.33	976.00
726.45	936.00
726.57	904.33
726.69	928.67
726.81	955.00
726.92	931.67
727.04	934.33
727.16	953.33
727.28	932.67
727.40	929.33
727.52	939.00
727.64	1077.33
727.76	1024.33
727.88	958.33
727.99	900.33
728.11	911.67
728.23	933.33
728.35	913.00
728.47	913.67
728.59	920.33
728.71	949.00
728.83	935.33
728.94	967.67
729.06	1038.67
729.18	1007.67
729.30	955.33
729.42	939.67
729.54	1021.67
729.66	1035.00
729.78	933.00
729.90	946.00
730.01	918.67
730.13	860.67
730.25	925.00
730.37	924.33
730.49	979.00
730.61	962.33
730.73	956.00
730.84	981.33
730.96	971.33
731.08	960.33
731.20	948.00
731.32	945.67
731.44	1114.67
731.56	955.67
731.68	898.00
731.79	949.67
731.91	914.00
732.03	923.33
732.15	941.67
732.27	915.33
732.39	928.67
732.51	979.33
732.62	904.00
732.74	931.33
732.86	999.33
732.98	963.00
733.10	932.67
733.22	951.00
733.34	965.00
733.45	889.33
733.57	944.00
733.69	892.00
733.81	931.67
733.93	957.67
734.05	867.67
734.17	924.33
734.28	957.67
734.40	946.00
734.52	927.67
734.64	911.67
734.76	1020.33
734.88	949.67
735.00	910.00
735.11	939.00
735.23	994.67
735.35	940.67
735.47	880.00
735.59	974.33
735.71	941.33
735.83	965.00
735.94	965.00
736.06	948.33
736.18	1012.33
736.30	1003.00
736.42	963.33
736.54	955.33
736.65	981.33
736.77	1115.00
736.89	998.00
737.01	943.33
737.13	1058.33
737.25	879.33
737.36	899.67
737.48	933.00
737.60	950.00
737.72	940.33
737.84	925.67
737.96	971.33
738.08	951.33
738.19	1041.67
738.31	929.00
738.43	950.67
738.55	959.67
738.67	954.33
738.79	901.67
738.90	949.00
739.02	961.33
739.14	931.00
739.26	930.33
739.38	943.00
739.50	974.00
739.61	956.00
739.73	939.33
739.85	929.00
739.97	976.00
740.09	1010.33
740.20	904.67
740.32	952.00
740.44	980.00
740.56	914.33
740.68	939.00
740.80	945.33
740.91	951.67
741.03	994.33
741.15	979.67
741.27	925.00
741.39	995.67
741.51	960.33
741.62	988.33
741.74	951.33
741.86	949.67
741.98	910.67
742.10	965.33
742.21	958.67
742.33	960.33
742.45	907.33
742.57	994.33
742.69	937.67
742.80	980.00
742.92	951.33
743.04	946.33
743.16	934.33
743.28	1016.67
743.40	917.00
743.51	915.67
743.63	910.33
743.75	949.33
743.87	946.67
743.99	959.33
744.10	938.33
744.22	955.33
744.34	927.33
744.46	973.67
744.58	951.33
744.69	877.00
744.81	959.33
744.93	904.33
745.05	903.00
745.17	1043.67
745.28	1031.33
745.40	965.00
745.52	947.33
745.64	965.33
745.76	995.33
745.87	933.33
745.99	912.67
746.11	959.00
746.23	909.00
746.35	951.67
746.46	921.67
746.58	1061.00
746.70	970.67
746.82	967.33
746.94	947.33
747.05	912.00
747.17	901.67
747.29	897.67
747.41	932.33
747.53	1086.67
747.64	941.33
747.76	996.33
747.88	998.67
748.00	994.00
748.12	966.33
748.23	929.00
748.35	963.00
748.47	992.33
748.59	1000.33
748.70	927.67
748.82	911.67
748.94	925.67
749.06	934.67
749.18	939.67
749.29	914.33
749.41	969.67
749.53	953.00
749.65	921.67
749.76	977.67
749.88	941.67
750.00	973.67
750.12	994.67
750.24	966.00
750.35	955.00
750.47	912.67
750.59	971.00
750.71	928.00
750.82	995.00
750.94	923.67
751.06	926.00
751.18	907.67
751.30	998.33
751.41	993.00
751.53	971.00
751.65	922.33
751.77	937.00
751.88	962.67
752.00	990.00
752.12	903.67
752.24	1013.00
752.35	986.00
752.47	978.00
752.59	983.33
752.71	1039.33
752.83	939.67
752.94	999.33
753.06	926.33
753.18	974.33
753.30	940.00
753.41	880.67
753.53	919.33
753.65	937.33
753.77	999.00
753.88	927.00
754.00	963.33
754.12	947.33
754.24	1030.33
754.35	932.33
754.47	890.00
754.59	983.00
754.71	981.67
754.82	948.67
754.94	933.00
755.06	1017.67
755.18	982.00
755.29	970.33
755.41	930.67
755.53	978.00
755.65	921.33
755.76	945.00
755.88	949.33
756.00	1015.33
756.12	931.33
756.23	849.33
756.35	912.67
756.47	985.00
756.59	934.00
756.70	918.33
756.82	928.67
756.94	940.33
757.06	974.33
757.17	951.33
757.29	925.00
757.41	899.67
757.53	967.33
757.64	946.67
757.76	943.33
757.88	968.00
758.00	975.67
758.11	938.00
758.23	901.00
758.35	973.67
758.47	906.33
758.58	959.00
758.70	898.33
758.82	926.67
758.94	912.00
759.05	952.67
759.17	902.00
759.29	946.67
759.40	1012.67
759.52	927.00
759.64	940.67
759.76	958.67
759.87	971.67
759.99	956.67
760.11	927.67
760.23	964.67
760.34	1000.33
760.46	956.00
760.58	933.33
760.70	954.67
760.81	997.33
760.93	950.00
761.05	982.00
761.16	968.67
761.28	933.67
761.40	912.33
761.52	915.00
761.63	1026.00
761.75	955.00
761.87	929.33
761.98	893.33
762.10	975.00
762.22	945.67
762.34	976.00
762.45	935.67
762.57	989.00
762.69	1086.33
762.81	935.33
762.92	968.00
763.04	888.00
763.16	971.00
763.27	974.00
763.39	917.67
763.51	974.00
763.63	973.00
763.74	921.00
763.86	897.67
763.98	918.67
764.09	948.00
764.21	953.00
764.33	906.33
764.44	914.00
764.56	955.67
764.68	915.00
764.80	951.33
764.91	875.33
765.03	999.00
765.15	928.67
765.26	936.00
765.38	905.00
765.50	982.67
765.62	952.33
765.73	946.67
765.85	957.67
765.97	907.00
766.08	948.67
766.20	951.33
766.32	961.33
766.43	1001.00
766.55	970.00
766.67	936.00
766.79	949.67
766.90	923.33
767.02	882.33
767.14	907.67
767.25	911.00
767.37	1051.00
767.49	964.67
767.60	922.67
767.72	992.67
767.84	983.67
767.95	935.67
768.07	907.67
768.19	968.33
768.31	976.67
768.42	961.33
768.54	934.33
768.66	953.00
768.77	988.00
768.89	945.00
769.01	911.33
769.12	970.67
769.24	953.33
769.36	898.00
769.47	905.67
769.59	898.33
769.71	961.67
769.82	935.00
769.94	934.00
770.06	899.33
770.17	983.67
770.29	936.00
770.41	959.33
770.53	967.67
770.64	908.00
770.76	940.33
770.88	960.67
770.99	983.33
771.11	916.67
771.23	955.00
771.34	941.67
771.46	1038.33
771.58	1012.67
771.69	969.00
771.81	944.33
771.93	990.00
772.04	918.00
772.16	965.67
772.28	938.67
772.39	997.00
772.51	944.67
772.63	967.67
772.74	926.00
772.86	937.00
772.98	1062.33
773.09	913.67
773.21	919.67
773.33	965.67
773.44	975.33
773.56	947.67
773.68	945.33
773.79	987.00
773.91	944.67
774.03	949.67
774.14	931.00
774.26	1004.00
774.38	915.00
774.49	893.00
774.61	937.67
774.73	954.00
774.84	930.00
774.96	914.67
775.08	935.67
775.19	959.00
775.31	998.00
775.43	944.00
775.54	926.33
775.66	895.67
775.77	993.00
775.89	901.33
776.01	985.33
776.12	998.00
776.24	970.67
776.36	893.00
776.47	912.33
776.59	954.33
776.71	985.67
776.82	883.67
776.94	894.00
777.06	920.67
777.17	1011.00
777.29	899.33
777.41	904.67
777.52	965.00
777.64	941.67
777.75	964.33
777.87	879.00
777.99	919.00
778.10	989.33
778.22	919.67
778.34	941.00
778.45	927.67
778.57	993.00
778.69	978.67
778.80	945.67
778.92	1047.00
779.04	962.67
779.15	940.00
779.27	968.00
779.38	973.00
779.50	998.67
779.62	879.67
779.73	923.33
779.85	871.67
779.97	1053.33
780.08	946.00
780.20	933.00
780.31	983.00
780.43	980.00
780.55	914.33
780.66	945.67
780.78	962.67
780.90	1041.33
781.01	914.00
781.13	941.00
781.25	929.00
781.36	1001.33
781.48	912.00
781.59	941.33
781.71	972.33
781.83	962.67
781.94	904.33
782.06	913.00
782.18	997.33
782.29	920.00
782.41	879.00
782.52	971.67
782.64	996.67
782.76	959.67
782.87	959.67
782.99	928.67
783.10	1072.67
783.22	1090.00
783.34	956.67
783.45	940.00
783.57	944.00
783.69	920.67
783.80	950.67
783.92	965.00
784.03	943.33
784.15	910.67
784.27	923.67
784.38	914.33
784.50	917.67
784.61	930.00
784.73	912.67
784.85	916.67
784.96	900.00
785.08	996.67
785.19	980.67
785.31	918.33
785.43	900.00
785.54	895.00
785.66	949.33
785.77	938.33
785.89	966.33
786.01	893.33
786.12	933.33
786.24	941.00
786.35	1021.67
786.47	953.33
786.59	920.00
786.70	895.67
786.82	951.00
786.93	956.00
787.05	929.33
787.17	942.00
787.28	928.33
787.40	956.67
787.51	950.67
787.63	944.67
787.75	895.67
787.86	950.00
787.98	966.33
788.09	926.00
788.21	953.00
788.33	965.67
788.44	950.67
788.56	905.67
788.67	955.33
788.79	918.33
788.91	941.00
789.02	909.67
789.14	930.00
789.25	1021.67
789.37	955.33
789.48	909.67
789.60	938.00
789.72	895.33
789.83	953.67
789.95	940.33
790.06	889.00
790.18	906.33
790.30	962.33
790.41	949.67
790.53	904.67
790.64	889.33
790.76	891.67
790.87	930.00
790.99	936.33
791.11	948.33
791.22	911.33
791.34	929.00
791.45	964.33
791.57	979.00
791.68	909.00
791.80	897.00
791.92	979.00
792.03	918.67
792.15	886.00
792.26	917.67
792.38	893.00
792.49	958.00
792.61	913.67
792.73	945.67
792.84	937.33
792.96	1040.67
793.07	919.33
793.19	1772.00
793.30	1018.67
793.42	972.67
793.54	868.00
793.65	878.00
793.77	1063.00
793.88	921.33
794.00	875.33
794.11	916.67
794.23	866.67
794.34	938.67
794.46	869.00
794.58	875.67
794.69	1029.67
794.81	1023.33
794.92	897.00
795.04	900.33
795.15	1009.33
795.27	961.67
795.39	926.67
795.50	890.33
795.62	896.33
795.73	916.67
795.85	891.00
795.96	939.33
796.08	991.67
796.19	910.33
796.31	912.33
796.42	868.67
796.54	899.00
796.66	975.67
796.77	875.67
796.89	861.67
797.00	988.00
797.12	854.00
797.23	907.00
797.35	936.00
797.46	965.00
797.58	990.67
797.69	928.00
797.81	909.00
797.93	918.00
798.04	895.33
798.16	909.00
798.27	932.33
798.39	885.00
798.50	872.00
798.62	870.33
798.73	873.00
798.85	1009.67
798.96	931.00
799.08	945.67
799.19	960.00
799.31	927.67
799.43	927.67
799.54	892.33
799.66	926.67
799.77	938.33
799.89	893.67
800.00	853.33
800.12	903.67
800.23	974.67
800.35	1004.00
800.46	852.33
800.58	840.33
800.69	912.33
800.81	897.33
800.92	878.00
801.04	922.33
801.16	855.67
801.27	862.33
801.39	890.67
801.50	896.33
801.62	911.67
801.73	971.00
801.85	950.67
801.96	869.00
802.08	971.33
802.19	980.00
802.31	894.67
802.42	911.00
802.54	1012.00
802.65	974.33
802.77	885.67
802.88	936.33
803.00	873.00
803.11	1029.67
803.23	923.00
803.34	920.33
803.46	947.33
803.57	890.67
803.69	941.00
803.80	870.33
803.92	961.67
804.03	894.67
804.15	925.00
804.26	946.67
804.38	964.67
804.50	896.00
804.61	917.33
804.73	915.00
804.84	918.00
804.96	850.00
805.07	904.00
805.19	871.00
805.30	938.00
805.42	961.00
805.53	916.67
805.65	882.67
805.76	858.00
805.88	895.00
805.99	920.67
806.11	939.33
806.22	885.00
806.34	901.67
806.45	906.00
806.57	890.67
806.68	950.00
806.80	833.33
806.91	876.67
807.03	864.00
807.14	846.67
807.26	853.00
807.37	860.00
807.49	918.00
807.60	881.00
807.72	981.00
807.83	982.00
807.95	913.67
808.06	934.67
808.17	921.00
808.29	933.00
808.40	869.00
808.52	906.33
808.63	918.00
808.75	912.67
808.86	896.33
808.98	926.67
809.09	875.33
809.21	905.67
809.32	880.33
809.44	936.33
809.55	853.00
809.67	910.67
809.78	869.33
809.90	930.33
810.01	964.67
810.13	880.67
810.24	909.00
810.36	842.33
810.47	924.00
810.59	895.00
810.70	913.00
810.82	936.33
810.93	854.33
811.05	872.33
811.16	866.67
811.27	873.67
811.39	907.00
811.50	930.67
811.62	832.67
811.73	820.33
811.85	916.33
811.96	892.00
812.08	912.00
812.19	906.67
812.31	916.67
812.42	882.33
812.54	863.67
812.65	933.00
812.77	941.67
812.88	924.67
813.00	923.33
813.11	919.67
813.22	853.33
813.34	863.67
813.45	876.67
813.57	984.33
813.68	992.00
813.80	904.67
813.91	852.33
814.03	883.00
814.14	981.67
814.26	863.67
814.37	888.33
814.49	882.00
814.60	870.00
814.71	851.67
814.83	878.67
814.94	841.33
815.06	877.33
815.17	879.00
815.29	862.00
815.40	835.33
815.52	975.00
815.63	870.00
815.75	845.67
815.86	899.00
815.97	841.67
816.09	872.00
816.20	894.00
816.32	909.67
816.43	832.00
816.55	888.33
816.66	863.33
816.78	971.33
816.89	887.00
817.00	878.00
817.12	854.33
817.23	842.67
817.35	925.67
817.46	886.33
817.58	836.00
817.69	975.33
817.81	879.33
817.92	905.67
818.03	878.67
818.15	875.33
818.26	843.33
818.38	819.67
818.49	845.00
818.61	881.00
818.72	837.33
818.83	1937.33
818.95	1008.00
819.06	855.67
819.18	857.67
819.29	881.67
819.41	859.33
819.52	889.67
819.64	878.00
819.75	847.67
819.86	824.33
819.98	852.67
820.09	891.00
820.21	868.33
820.32	833.67
820.44	876.67
820.55	948.33
820.66	843.00
820.78	897.67
820.89	860.00
821.01	892.00
821.12	872.33
821.23	858.67
821.35	847.33
821.46	919.00
821.58	863.00
821.69	843.33
821.81	830.00
821.92	909.00
822.03	842.67
822.15	867.00
822.26	821.33
822.38	813.00
822.49	867.00
822.61	862.33
822.72	878.00
822.83	927.33
822.95	850.67
823.06	865.33
823.18	916.00
823.29	940.00
823.40	879.33
823.52	848.00
823.63	818.67
823.75	961.00
823.86	855.67
823.97	813.33
824.09	894.67
824.20	819.00
824.32	863.67
824.43	838.00
824.55	900.67
824.66	954.00
824.77	856.00
824.89	864.67
825.00	920.67
825.12	873.67
825.23	873.33
825.34	814.00
825.46	825.00
825.57	901.67
825.69	836.67
825.80	779.33
825.91	829.33
826.03	799.33
826.14	869.67
826.26	809.00
826.37	854.33
826.48	831.33
826.60	852.67
826.71	833.33
826.83	864.00
826.94	871.67
827.05	884.33
827.17	882.33
827.28	841.00
827.39	829.67
827.51	799.00
827.62	829.67
827.74	853.33
827.85	840.33
827.96	817.67
828.08	830.67
828.19	943.67
828.31	846.67
828.42	786.00
828.53	859.00
828.65	899.67
828.76	898.33
828.87	857.33
828.99	800.67
