Wavelength (nm)	Intensity
377.35	796.25
377.48	593.50
377.62	611.00
377.75	607.25
377.88	811.50
378.02	797.50
378.15	798.00
378.28	772.75
378.41	837.25
378.55	806.50
378.68	806.50
378.81	777.50
378.95	812.00
379.08	790.75
379.21	759.75
379.35	821.50
379.48	828.25
379.61	883.75
379.74	806.00
379.88	785.75
380.01	857.00
380.14	912.25
380.28	850.25
380.41	779.25
380.54	806.75
380.68	834.50
380.81	748.25
380.94	828.50
381.07	876.50
381.21	872.75
381.34	803.25
381.47	746.75
381.61	932.00
381.74	804.00
381.87	772.75
382.00	826.25
382.14	882.25
382.27	838.50
382.40	776.50
382.54	870.00
382.67	864.50
382.80	780.50
382.93	787.00
383.07	811.00
383.20	804.50
383.33	834.00
383.47	780.75
383.60	769.50
383.73	944.50
383.86	827.75
384.00	789.75
384.13	791.00
384.26	831.00
384.40	854.25
384.53	804.00
384.66	845.75
384.79	823.25
384.93	793.50
385.06	794.25
385.19	813.00
385.33	917.00
385.46	839.00
385.59	781.00
385.72	825.25
385.86	770.75
385.99	794.50
386.12	793.75
386.25	773.75
386.39	847.00
386.52	865.00
386.65	801.00
386.79	797.00
386.92	788.00
387.05	882.75
387.18	760.75
387.32	781.50
387.45	832.25
387.58	815.25
387.71	798.50
387.85	786.25
387.98	823.50
388.11	838.25
388.25	823.25
388.38	804.00
388.51	837.50
388.64	844.00
388.78	787.25
388.91	761.00
389.04	802.25
389.17	912.75
389.31	822.00
389.44	834.00
389.57	859.75
389.70	828.00
389.84	781.75
389.97	794.25
390.10	786.75
390.24	829.75
390.37	801.50
390.50	789.75
390.63	865.50
390.77	803.75
390.90	810.75
391.03	808.00
391.16	771.75
391.30	786.25
391.43	797.75
391.56	793.00
391.69	780.50
391.83	852.75
391.96	809.25
392.09	796.25
392.22	888.75
392.36	831.75
392.49	771.75
392.62	800.75
392.75	826.25
392.89	865.50
393.02	774.00
393.15	771.50
393.28	759.50
393.42	893.00
393.55	761.25
393.68	785.25
393.81	741.50
393.95	787.75
394.08	781.00
394.21	786.25
394.34	837.50
394.48	824.75
394.61	835.75
394.74	821.50
394.87	855.50
395.01	828.50
395.14	837.25
395.27	787.25
395.40	898.75
395.54	890.00
395.67	806.00
395.80	797.75
395.93	836.25
396.07	787.25
396.20	783.00
396.33	737.25
396.46	790.75
396.59	791.75
396.73	791.75
396.86	777.00
396.99	861.50
397.12	820.50
397.26	813.25
397.39	805.50
397.52	1078.00
397.65	912.50
397.79	809.25
397.92	797.00
398.05	853.75
398.18	791.25
398.32	785.25
398.45	827.25
398.58	825.25
398.71	835.00
398.84	765.00
398.98	805.50
399.11	831.25
399.24	829.00
399.37	804.00
399.51	771.00
399.64	803.25
399.77	808.25
399.90	804.75
400.03	810.00
400.17	760.25
400.30	862.00
400.43	827.50
400.56	806.50
400.70	803.75
400.83	777.25
400.96	778.00
401.09	812.25
401.23	808.00
401.36	867.50
401.49	797.00
401.62	807.25
401.75	790.00
401.89	781.50
402.02	799.50
402.15	802.50
402.28	826.00
402.41	815.25
402.55	781.25
402.68	794.25
402.81	866.25
402.94	842.00
403.08	786.00
403.21	768.50
403.34	838.75
403.47	844.75
403.60	797.00
403.74	831.75
403.87	842.50
404.00	773.00
404.13	788.25
404.26	764.75
404.40	766.25
404.53	820.00
404.66	802.75
404.79	769.25
404.93	837.75
405.06	782.50
405.19	752.25
405.32	808.50
405.45	827.00
405.59	848.75
405.72	800.00
405.85	774.00
405.98	971.50
406.11	782.25
406.25	771.25
406.38	790.00
406.51	839.00
406.64	801.00
406.77	762.25
406.91	760.50
407.04	821.00
407.17	793.50
407.30	823.75
407.43	799.75
407.57	876.75
407.70	858.50
407.83	774.25
407.96	812.50
408.09	767.00
408.23	892.25
408.36	812.00
408.49	804.00
408.62	906.50
408.75	815.00
408.89	782.50
409.02	821.75
409.15	799.50
409.28	878.25
409.41	834.75
409.55	792.50
409.68	922.25
409.81	820.00
409.94	780.50
410.07	813.50
410.20	808.75
410.34	794.50
410.47	810.25
410.60	805.25
410.73	841.00
410.86	774.75
411.00	805.00
411.13	778.00
411.26	806.50
411.39	815.00
411.52	821.00
411.66	795.25
411.79	790.50
411.92	774.50
412.05	796.25
412.18	791.75
412.31	829.00
412.45	845.75
412.58	841.75
412.71	767.50
412.84	824.75
412.97	884.00
413.11	811.00
413.24	819.25
413.37	849.75
413.50	902.25
413.63	822.25
413.76	796.50
413.90	838.25
414.03	794.25
414.16	798.50
414.29	827.75
414.42	806.00
414.56	911.25
414.69	783.75
414.82	807.75
414.95	808.00
415.08	834.00
415.21	802.50
415.35	823.50
415.48	734.50
415.61	845.25
415.74	853.75
415.87	767.25
416.00	813.75
416.14	920.00
416.27	814.50
416.40	779.50
416.53	804.00
416.66	825.75
416.79	810.00
416.93	778.50
417.06	861.00
417.19	806.75
417.32	800.00
417.45	795.25
417.58	766.50
417.72	861.75
417.85	785.25
417.98	800.25
418.11	834.00
418.24	789.50
418.37	790.50
418.51	805.50
418.64	808.25
418.77	882.00
418.90	819.25
419.03	766.00
419.16	825.25
419.29	853.25
419.43	787.75
419.56	774.75
419.69	913.25
419.82	854.50
419.95	795.50
420.08	849.00
420.22	866.50
420.35	926.25
420.48	846.25
420.61	806.25
420.74	753.00
420.87	832.75
421.00	764.25
421.14	788.25
421.27	853.50
421.40	883.50
421.53	825.50
421.66	806.50
421.79	794.25
421.93	801.75
422.06	808.00
422.19	779.25
422.32	848.75
422.45	848.50
422.58	808.25
422.71	793.75
422.85	850.50
422.98	844.25
423.11	754.75
423.24	760.00
423.37	774.00
423.50	780.75
423.63	805.25
423.77	776.00
423.90	770.50
424.03	821.50
424.16	835.00
424.29	807.75
424.42	756.00
424.55	777.75
424.69	772.00
424.82	814.00
424.95	820.75
425.08	776.25
425.21	832.75
425.34	792.75
425.47	801.50
425.60	820.00
425.74	763.50
425.87	788.50
426.00	807.00
426.13	824.25
426.26	774.50
426.39	784.50
426.52	794.00
426.66	868.50
426.79	830.50
426.92	778.75
427.05	891.50
427.18	868.25
427.31	800.25
427.44	798.50
427.57	779.75
427.71	805.25
427.84	770.50
427.97	810.00
428.10	860.50
428.23	819.25
428.36	785.50
428.49	722.75
428.62	925.00
428.76	900.00
428.89	814.75
429.02	760.50
429.15	806.75
429.28	906.00
429.41	790.00
429.54	803.25
429.67	790.25
429.81	831.75
429.94	813.25
430.07	793.00
430.20	851.50
430.33	861.75
430.46	772.50
430.59	773.75
430.72	806.00
430.85	760.00
430.99	798.00
431.12	769.75
431.25	845.00
431.38	869.50
431.51	806.50
431.64	810.25
431.77	881.75
431.90	878.25
432.03	806.00
432.17	777.00
432.30	820.75
432.43	827.75
432.56	809.75
432.69	829.75
432.82	818.00
432.95	863.50
433.08	802.75
433.21	807.75
433.35	801.75
433.48	806.75
433.61	761.75
433.74	797.25
433.87	789.00
434.00	853.00
434.13	780.50
434.26	833.50
434.39	825.50
434.53	832.75
434.66	806.25
434.79	792.75
434.92	791.50
435.05	866.00
435.18	783.75
435.31	821.25
435.44	867.75
435.57	812.00
435.70	805.00
435.84	780.00
435.97	877.50
436.10	920.50
436.23	792.25
436.36	771.50
436.49	791.00
436.62	815.00
436.75	794.50
436.88	827.75
437.01	780.75
437.14	767.00
437.28	743.50
437.41	784.00
437.54	867.75
437.67	834.75
437.80	782.75
437.93	753.75
438.06	917.50
438.19	851.25
438.32	770.50
438.45	775.75
438.58	828.25
438.72	879.25
438.85	836.75
438.98	798.50
439.11	817.50
439.24	865.00
439.37	859.00
439.50	831.75
439.63	854.75
439.76	789.50
439.89	779.75
440.02	791.00
440.15	826.00
440.29	871.50
440.42	805.50
440.55	807.00
440.68	881.00
440.81	926.25
440.94	819.50
441.07	813.50
441.20	898.75
441.33	828.00
441.46	795.50
441.59	788.75
441.72	801.75
441.85	811.75
441.99	844.00
442.12	842.50
442.25	888.75
442.38	835.25
442.51	823.25
442.64	760.75
442.77	808.25
442.90	793.00
443.03	763.25
443.16	793.25
443.29	806.00
443.42	873.00
443.55	792.75
443.68	827.00
443.82	761.75
443.95	783.75
444.08	792.25
444.21	808.50
444.34	785.75
444.47	800.75
444.60	803.75
444.73	819.25
444.86	820.75
444.99	867.25
445.12	824.50
445.25	817.25
445.38	814.25
445.51	846.50
445.64	815.75
445.78	795.00
445.91	746.75
446.04	915.25
446.17	854.25
446.30	757.25
446.43	832.75
446.56	817.75
446.69	774.00
446.82	789.25
446.95	842.00
447.08	851.75
447.21	817.00
447.34	789.25
447.47	851.75
447.60	844.50
447.73	812.50
447.86	836.00
447.99	815.75
448.13	820.25
448.26	836.50
448.39	793.00
448.52	843.00
448.65	851.00
448.78	805.50
448.91	804.00
449.04	825.75
449.17	785.00
449.30	825.25
449.43	819.25
449.56	808.00
449.69	861.50
449.82	799.75
449.95	764.75
450.08	855.75
450.21	835.75
450.34	807.00
450.47	800.75
450.60	841.25
450.73	817.50
450.87	800.00
451.00	812.75
451.13	842.75
451.26	950.50
451.39	795.00
451.52	831.75
451.65	802.75
451.78	796.25
451.91	795.50
452.04	785.00
452.17	888.50
452.30	882.75
452.43	793.00
452.56	790.25
452.69	852.00
452.82	782.25
452.95	834.75
453.08	775.75
453.21	732.50
453.34	845.75
453.47	790.00
453.60	852.00
453.73	895.75
453.86	835.25
453.99	824.50
454.12	825.75
454.25	799.75
454.38	820.25
454.52	776.75
454.65	798.25
454.78	786.75
454.91	750.50
455.04	785.25
455.17	768.00
455.30	775.75
455.43	867.25
455.56	792.00
455.69	760.00
455.82	827.75
455.95	823.25
456.08	773.25
456.21	770.75
456.34	753.75
456.47	745.50
456.60	798.00
456.73	782.00
456.86	791.75
456.99	817.25
457.12	779.75
457.25	783.75
457.38	859.50
457.51	823.25
457.64	810.25
457.77	793.00
457.90	803.50
458.03	793.75
458.16	790.00
458.29	802.25
458.42	797.25
458.55	751.00
458.68	765.50
458.81	784.75
458.94	869.75
459.07	911.25
459.20	762.25
459.33	769.75
459.46	862.00
459.59	898.00
459.72	865.00
459.85	799.25
459.98	880.50
460.11	835.25
460.24	813.75
460.37	759.50
460.50	849.25
460.63	806.75
460.76	790.50
460.89	808.25
461.02	828.25
461.15	830.75
461.28	799.25
461.41	790.25
461.54	879.25
461.67	777.00
461.80	814.50
461.93	851.50
462.06	829.75
462.19	861.75
462.32	794.50
462.45	785.50
462.58	836.75
462.71	792.50
462.84	813.75
462.97	749.00
463.10	798.75
463.23	820.75
463.36	837.25
463.49	804.50
463.62	755.25
463.75	833.75
463.88	793.25
464.01	806.75
464.14	777.00
464.27	890.00
464.40	795.75
464.53	794.75
464.66	829.75
464.79	826.50
464.92	812.75
465.05	779.50
465.18	800.25
465.31	806.50
465.44	800.00
465.57	779.25
465.70	788.00
465.83	911.50
465.96	814.50
466.09	779.25
466.22	851.75
466.35	823.75
466.48	786.00
466.61	783.75
466.74	796.75
466.87	843.00
467.00	841.00
467.13	831.75
467.26	844.00
467.39	763.25
467.52	761.00
467.65	795.25
467.78	873.25
467.91	814.50
468.04	818.75
468.17	781.25
468.30	795.75
468.43	761.75
468.56	773.50
468.69	821.00
468.82	838.50
468.95	774.75
469.08	785.75
469.21	801.00
469.34	835.25
469.47	904.25
469.60	887.25
469.73	806.00
469.86	815.75
469.99	853.00
470.11	783.25
470.24	783.00
470.37	839.00
470.50	820.50
470.63	785.50
470.76	798.75
470.89	846.00
471.02	905.75
471.15	786.00
471.28	797.75
471.41	894.75
471.54	824.75
471.67	792.25
471.80	740.75
471.93	842.75
472.06	816.00
472.19	800.75
472.32	777.75
472.45	912.00
472.58	851.75
472.71	811.50
472.84	787.75
472.97	780.25
473.10	765.00
473.23	836.50
473.36	752.75
473.49	860.00
473.62	844.00
473.74	822.00
473.87	842.00
474.00	776.00
474.13	774.25
474.26	808.25
474.39	840.00
474.52	807.50
474.65	787.50
474.78	803.00
474.91	756.75
475.04	826.00
475.17	922.25
475.30	832.50
475.43	817.00
475.56	853.50
475.69	806.00
475.82	831.25
475.95	771.25
476.08	864.00
476.21	811.00
476.34	847.75
476.46	837.25
476.59	857.50
476.72	800.50
476.85	800.00
476.98	767.50
477.11	858.75
477.24	813.75
477.37	745.00
477.50	786.50
477.63	816.50
477.76	775.25
477.89	736.75
478.02	765.00
478.15	809.25
478.28	794.00
478.41	823.00
478.54	796.00
478.66	850.50
478.79	801.25
478.92	794.25
479.05	799.75
479.18	810.75
479.31	773.25
479.44	780.50
479.57	779.50
479.70	787.75
479.83	821.25
479.96	789.00
480.09	827.00
480.22	940.25
480.35	919.25
480.48	850.00
480.60	812.50
480.73	784.75
480.86	823.00
480.99	797.00
481.12	794.50
481.25	803.75
481.38	864.00
481.51	801.25
481.64	801.25
481.77	832.75
481.90	795.75
482.03	807.00
482.16	794.00
482.29	865.00
482.41	807.75
482.54	834.75
482.67	775.75
482.80	799.00
482.93	850.25
483.06	774.50
483.19	860.75
483.32	829.25
483.45	805.25
483.58	820.50
483.71	841.50
483.84	848.00
483.97	833.75
484.09	809.25
484.22	788.50
484.35	777.75
484.48	747.25
484.61	778.50
484.74	782.25
484.87	813.25
485.00	760.50
485.13	817.00
485.26	767.75
485.39	836.00
485.52	803.75
485.64	869.00
485.77	838.75
485.90	863.50
486.03	776.50
486.16	811.75
486.29	779.50
486.42	802.25
486.55	819.00
486.68	798.75
486.81	831.50
486.94	815.50
487.06	787.75
487.19	838.50
487.32	832.50
487.45	817.50
487.58	785.25
487.71	802.75
487.84	762.25
487.97	837.50
488.10	852.00
488.23	781.75
488.35	755.25
488.48	787.50
488.61	766.75
488.74	788.00
488.87	783.50
489.00	819.75
489.13	895.75
489.26	839.75
489.39	836.25
489.52	838.50
489.64	825.25
489.77	815.75
489.90	808.25
490.03	804.25
490.16	781.75
490.29	781.50
490.42	780.25
490.55	812.00
490.68	772.00
490.81	794.00
490.93	760.50
491.06	862.50
491.19	833.50
491.32	821.75
491.45	825.50
491.58	757.75
491.71	793.00
491.84	787.00
491.97	786.75
492.09	863.25
492.22	827.50
492.35	814.75
492.48	847.50
492.61	819.75
492.74	811.25
492.87	819.50
493.00	804.50
493.12	775.25
493.25	801.75
493.38	804.50
493.51	781.25
493.64	764.50
493.77	805.00
493.90	828.25
494.03	821.25
494.16	859.00
494.28	864.00
494.41	800.50
494.54	796.75
494.67	908.00
494.80	866.75
494.93	802.75
495.06	832.50
495.19	833.50
495.31	815.00
495.44	796.50
495.57	773.25
495.70	830.25
495.83	803.25
495.96	767.75
496.09	809.50
496.22	871.25
496.34	901.00
496.47	809.25
496.60	829.00
496.73	858.25
496.86	855.50
496.99	778.25
497.12	809.50
497.24	748.25
497.37	810.50
497.50	802.25
497.63	781.25
497.76	801.00
497.89	864.00
498.02	839.25
498.15	732.00
498.27	808.75
498.40	856.00
498.53	879.00
498.66	832.75
498.79	856.50
498.92	772.75
499.05	819.50
499.17	810.25
499.30	846.50
499.43	894.25
499.56	835.75
499.69	759.75
499.82	822.50
499.95	787.00
500.07	789.75
500.20	807.75
500.33	848.50
500.46	943.25
500.59	821.50
500.72	818.00
500.85	856.75
500.97	847.50
501.10	852.25
501.23	774.25
501.36	814.50
501.49	886.00
501.62	837.50
501.75	819.25
501.87	856.50
502.00	762.75
502.13	813.25
502.26	816.00
502.39	789.50
502.52	795.50
502.64	751.00
502.77	782.25
502.90	836.00
503.03	800.00
503.16	780.25
503.29	781.75
503.42	860.25
503.54	817.75
503.67	820.25
503.80	811.50
503.93	849.00
504.06	781.00
504.19	806.75
504.31	857.50
504.44	820.50
504.57	832.00
504.70	823.00
504.83	766.25
504.96	831.00
505.08	809.00
505.21	824.75
505.34	911.75
505.47	860.25
505.60	841.50
505.73	860.75
505.85	852.50
505.98	937.50
506.11	802.25
506.24	777.25
506.37	779.25
506.50	818.25
506.62	854.75
506.75	794.25
506.88	785.75
507.01	827.25
507.14	765.00
507.27	805.50
507.39	771.50
507.52	791.25
507.65	794.00
507.78	829.00
507.91	779.75
508.04	872.75
508.16	863.50
508.29	830.00
508.42	796.00
508.55	774.00
508.68	791.25
508.81	848.50
508.93	785.75
509.06	803.25
509.19	841.00
509.32	830.00
509.45	815.75
509.57	829.75
509.70	778.25
509.83	809.25
509.96	775.75
510.09	818.00
510.22	807.75
510.34	814.50
510.47	806.00
510.60	907.25
510.73	822.00
510.86	825.25
510.98	800.50
511.11	797.75
511.24	859.25
511.37	840.00
511.50	806.25
511.63	826.00
511.75	820.75
511.88	813.25
512.01	834.25
512.14	818.75
512.27	828.25
512.39	808.25
512.52	801.50
512.65	812.50
512.78	781.75
512.91	816.00
513.03	814.75
513.16	852.00
513.29	816.00
513.42	802.50
513.55	771.75
513.67	829.50
513.80	757.25
513.93	782.25
514.06	789.75
514.19	819.25
514.31	820.75
514.44	840.50
514.57	803.50
514.70	818.25
514.83	868.75
514.95	797.50
515.08	824.25
515.21	834.25
515.34	821.50
515.47	816.00
515.59	784.50
515.72	830.75
515.85	839.25
515.98	860.75
516.11	819.75
516.23	846.50
516.36	874.25
516.49	835.25
516.62	823.25
516.75	876.25
516.87	869.25
517.00	789.75
517.13	833.50
517.26	864.00
517.39	835.75
517.51	755.75
517.64	809.75
517.77	883.00
517.90	778.50
518.02	804.25
518.15	786.00
518.28	738.50
518.41	805.00
518.54	813.75
518.66	819.75
518.79	779.75
518.92	787.00
519.05	776.25
519.18	808.75
519.30	840.00
519.43	773.25
519.56	784.50
519.69	795.75
519.81	859.50
519.94	793.00
520.07	739.25
520.20	790.25
520.33	816.75
520.45	863.50
520.58	819.25
520.71	825.25
520.84	857.50
520.96	823.00
521.09	800.50
521.22	786.50
521.35	844.00
521.48	842.75
521.60	791.50
521.73	809.25
521.86	868.75
521.99	891.75
522.11	828.25
522.24	812.75
522.37	840.75
522.50	820.50
522.62	857.25
522.75	756.75
522.88	819.75
523.01	803.00
523.14	842.50
523.26	830.25
523.39	878.00
523.52	787.50
523.65	896.50
523.77	842.00
523.90	819.25
524.03	799.25
524.16	798.75
524.28	793.25
524.41	799.00
524.54	804.00
524.67	772.50
524.79	792.75
524.92	828.25
525.05	881.50
525.18	782.25
525.31	846.25
525.43	778.00
525.56	922.50
525.69	793.00
525.82	740.00
525.94	850.25
526.07	847.25
526.20	832.00
526.33	857.25
526.45	928.25
526.58	903.25
526.71	833.50
526.84	810.25
526.96	825.50
527.09	788.00
527.22	792.75
527.35	799.25
527.47	771.00
527.60	868.50
527.73	784.25
527.86	841.50
527.98	839.00
528.11	843.25
528.24	780.50
528.37	804.25
528.49	772.00
528.62	814.50
528.75	848.75
528.88	795.75
529.00	842.25
529.13	863.75
529.26	819.25
529.39	844.25
529.51	928.25
529.64	912.50
529.77	796.75
529.90	787.25
530.02	794.75
530.15	790.00
530.28	744.25
530.40	777.25
530.53	805.00
530.66	841.25
530.79	795.00
530.91	810.50
531.04	787.50
531.17	803.25
531.30	807.75
531.42	801.25
531.55	814.25
531.68	867.00
531.81	783.50
531.93	804.25
532.06	819.25
532.19	766.50
532.31	808.50
532.44	794.00
532.57	832.00
532.70	791.75
532.82	812.75
532.95	842.50
533.08	877.00
533.21	837.75
533.33	788.00
533.46	787.50
533.59	790.50
533.71	910.50
533.84	821.75
533.97	799.75
534.10	791.25
534.22	777.25
534.35	810.50
534.48	820.50
534.61	829.75
534.73	752.25
534.86	776.25
534.99	817.50
535.11	861.50
535.24	825.75
535.37	779.50
535.50	766.00
535.62	773.50
535.75	867.50
535.88	814.25
536.00	789.75
536.13	799.25
536.26	799.75
536.39	786.75
536.51	761.25
536.64	825.25
536.77	801.50
536.89	796.25
537.02	808.00
537.15	826.75
537.28	810.25
537.40	825.75
537.53	798.00
537.66	854.75
537.78	812.50
537.91	765.50
538.04	788.75
538.17	848.75
538.29	829.00
538.42	877.75
538.55	868.75
538.67	842.50
538.80	791.00
538.93	829.00
539.05	815.00
539.18	864.00
539.31	848.75
539.44	821.50
539.56	737.25
539.69	798.75
539.82	789.75
539.94	775.00
540.07	776.25
540.20	855.25
540.32	781.75
540.45	800.75
540.58	794.25
540.71	854.75
540.83	765.00
540.96	783.75
541.09	801.25
541.21	874.25
541.34	870.50
541.47	775.50
541.59	806.50
541.72	882.50
541.85	946.75
541.98	862.00
542.10	805.50
542.23	823.25
542.36	929.50
542.48	819.00
542.61	800.00
542.74	776.00
542.86	788.50
542.99	803.50
543.12	782.50
543.24	820.25
543.37	752.75
543.50	792.75
543.62	787.00
543.75	798.50
543.88	797.50
544.01	820.25
544.13	835.50
544.26	833.25
544.39	786.25
544.51	789.00
544.64	766.25
544.77	820.50
544.89	782.00
545.02	810.00
545.15	792.00
545.27	888.50
545.40	862.25
545.53	841.25
545.65	831.25
545.78	735.25
545.91	769.25
546.03	786.25
546.16	808.75
546.29	782.00
546.41	759.00
546.54	789.75
546.67	768.25
546.79	833.75
546.92	882.50
547.05	761.25
547.17	800.75
547.30	779.25
547.43	832.00
547.56	772.75
547.68	805.75
547.81	756.75
547.94	827.25
548.06	794.00
548.19	770.25
548.32	864.50
548.44	818.25
548.57	820.50
548.70	841.25
548.82	852.50
548.95	841.50
549.08	805.75
549.20	799.00
549.33	891.00
549.45	801.25
549.58	790.00
549.71	762.50
549.83	852.00
549.96	757.50
550.09	810.50
550.21	784.50
550.34	817.50
550.47	794.50
550.59	793.00
550.72	742.00
550.85	804.00
550.97	857.25
551.10	784.00
551.23	798.00
551.35	864.50
551.48	826.50
551.61	799.75
551.73	791.25
551.86	879.25
551.99	871.50
552.11	807.75
552.24	837.50
552.37	811.50
552.49	774.50
552.62	791.50
552.75	831.75
552.87	787.00
553.00	785.75
553.12	815.50
553.25	787.00
553.38	831.75
553.50	854.50
553.63	797.75
553.76	751.00
553.88	806.25
554.01	795.75
554.14	798.25
554.26	843.25
554.39	874.50
554.52	806.25
554.64	810.50
554.77	787.25
554.89	839.75
555.02	853.75
555.15	818.00
555.27	807.50
555.40	808.00
555.53	860.25
555.65	797.50
555.78	773.25
555.91	840.25
556.03	877.75
556.16	777.25
556.29	809.75
556.41	864.50
556.54	870.00
556.66	805.75
556.79	793.50
556.92	814.25
557.04	824.75
557.17	783.00
557.30	792.00
557.42	788.50
557.55	800.75
557.67	822.50
557.80	796.25
557.93	806.50
558.05	813.75
558.18	771.00
558.31	809.00
558.43	845.25
558.56	829.50
558.68	804.25
558.81	776.75
558.94	799.00
559.06	908.50
559.19	788.25
559.32	785.25
559.44	759.50
559.57	790.75
559.69	770.25
559.82	776.50
559.95	787.50
560.07	788.00
560.20	728.50
560.33	803.75
560.45	810.75
560.58	753.00
560.70	803.00
560.83	765.50
560.96	783.50
561.08	796.25
561.21	822.75
561.33	768.00
561.46	759.25
561.59	835.00
561.71	787.50
561.84	805.25
561.97	768.50
562.09	833.25
562.22	782.75
562.34	766.25
562.47	831.50
562.60	815.00
562.72	794.75
562.85	798.75
562.97	793.50
563.10	794.50
563.23	772.00
563.35	770.25
563.48	816.75
563.60	796.50
563.73	822.75
563.86	755.75
563.98	773.50
564.11	793.50
564.23	788.50
564.36	858.25
564.49	793.00
564.61	852.75
564.74	804.50
564.86	777.25
564.99	840.50
565.12	827.75
565.24	850.25
565.37	836.00
565.49	842.50
565.62	869.75
565.75	833.50
565.87	767.75
566.00	933.50
566.12	851.50
566.25	809.50
566.38	837.00
566.50	807.25
566.63	842.25
566.75	791.50
566.88	774.00
567.01	768.25
567.13	788.50
567.26	791.50
567.38	776.25
567.51	846.50
567.64	782.50
567.76	825.25
567.89	811.25
568.01	766.50
568.14	768.25
568.26	800.00
568.39	806.75
568.52	809.00
568.64	831.25
568.77	791.50
568.89	783.25
569.02	783.50
569.15	795.00
569.27	788.75
569.40	814.00
569.52	836.25
569.65	782.75
569.77	795.50
569.90	765.75
570.03	751.00
570.15	862.50
570.28	801.00
570.40	796.25
570.53	784.75
570.66	855.00
570.78	834.75
570.91	810.75
571.03	772.75
571.16	806.50
571.28	762.75
571.41	741.25
571.54	742.50
571.66	736.00
571.79	760.50
571.91	771.75
572.04	751.25
572.16	798.00
572.29	827.00
572.42	780.75
572.54	806.75
572.67	762.75
572.79	812.00
572.92	788.75
573.04	825.25
573.17	840.75
573.29	801.75
573.42	781.50
573.55	812.00
573.67	817.00
573.80	790.25
573.92	772.00
574.05	806.50
574.17	842.25
574.30	800.50
574.43	788.00
574.55	780.25
574.68	803.75
574.80	782.75
574.93	787.75
575.05	767.25
575.18	781.75
575.30	783.25
575.43	831.00
575.56	842.25
575.68	830.00
575.81	789.00
575.93	764.00
576.06	817.50
576.18	832.00
576.31	786.00
576.43	774.75
576.56	890.50
576.69	849.75
576.81	816.50
576.94	782.50
577.06	798.75
577.19	826.75
577.31	802.00
577.44	819.25
577.56	852.25
577.69	812.00
577.82	820.50
577.94	778.75
578.07	746.00
578.19	811.75
578.32	836.00
578.44	782.25
578.57	782.00
578.69	835.50
578.82	804.75
578.94	831.00
579.07	851.00
579.19	829.00
579.32	808.25
579.45	810.25
579.57	799.75
579.70	768.50
579.82	811.25
579.95	784.25
580.07	860.00
580.20	791.50
580.32	806.50
580.45	833.25
580.57	830.75
580.70	831.00
580.82	823.50
580.95	827.25
581.08	764.75
581.20	842.75
581.33	787.25
581.45	818.50
581.58	814.00
581.70	811.50
581.83	726.00
581.95	810.00
582.08	826.00
582.20	790.25
582.33	800.50
582.45	773.00
582.58	791.00
582.70	816.25
582.83	780.75
582.95	798.75
583.08	838.00
583.21	842.25
583.33	803.25
583.46	784.00
583.58	758.00
583.71	818.75
583.83	814.75
583.96	812.25
584.08	824.00
584.21	826.25
584.33	826.50
584.46	799.50
584.58	759.00
584.71	828.50
584.83	820.75
584.96	799.50
585.08	779.75
585.21	893.50
585.33	867.00
585.46	838.75
585.58	840.50
585.71	780.50
585.83	802.50
585.96	847.50
586.08	829.50
586.21	824.00
586.33	847.25
586.46	767.50
586.59	830.50
586.71	773.00
586.84	825.00
586.96	813.00
587.09	754.00
587.21	787.75
587.34	839.25
587.46	794.00
587.59	762.00
587.71	794.25
587.84	786.25
587.96	755.50
588.09	756.50
588.21	812.50
588.34	791.25
588.46	818.00
588.59	782.75
588.71	820.00
588.84	826.50
588.96	804.50
589.09	898.00
589.21	800.75
589.34	779.50
589.46	797.25
589.59	808.00
589.71	849.25
589.84	765.75
589.96	780.25
590.09	801.00
590.21	834.50
590.34	814.25
590.46	811.50
590.59	779.25
590.71	784.25
590.84	842.75
590.96	774.50
591.09	812.75
591.21	816.00
591.34	783.25
591.46	789.75
591.59	848.75
591.71	829.25
591.83	798.00
591.96	752.75
592.08	782.25
592.21	830.50
592.33	813.25
592.46	785.50
592.58	808.00
592.71	842.75
592.83	887.25
592.96	839.75
593.08	852.50
593.21	769.00
593.33	763.25
593.46	786.25
593.58	794.25
593.71	843.75
593.83	855.25
593.96	772.50
594.08	905.75
594.21	800.50
594.33	791.25
594.46	770.75
594.58	758.00
594.71	739.00
594.83	811.25
594.96	800.00
595.08	951.00
595.20	840.75
595.33	813.25
595.45	773.75
595.58	882.00
595.70	826.75
595.83	798.00
595.95	808.50
596.08	801.25
596.20	761.00
596.33	749.75
596.45	796.25
596.58	772.00
596.70	760.75
596.83	795.25
596.95	787.75
597.08	809.25
597.20	760.50
597.32	782.25
597.45	811.75
597.57	794.75
597.70	828.25
597.82	782.50
597.95	813.75
598.07	804.75
598.20	810.75
598.32	804.75
598.45	788.00
598.57	840.25
598.70	853.50
598.82	791.50
598.94	790.25
599.07	847.50
599.19	802.00
599.32	769.50
599.44	715.75
599.57	835.25
599.69	817.25
599.82	784.25
599.94	769.25
600.07	839.75
600.19	818.50
600.31	779.00
600.44	835.25
600.56	902.25
600.69	884.00
600.81	778.50
600.94	790.50
601.06	795.25
601.19	827.00
601.31	851.75
601.44	750.00
601.56	860.50
601.68	833.50
601.81	816.75
601.93	812.25
602.06	825.75
602.18	772.25
602.31	788.75
602.43	860.25
602.56	830.00
602.68	801.50
602.80	795.75
602.93	816.00
603.05	777.25
603.18	808.00
603.30	763.25
603.43	766.00
603.55	797.50
603.68	814.75
603.80	816.25
603.92	804.00
604.05	780.50
604.17	788.25
604.30	765.25
604.42	789.25
604.55	786.75
604.67	839.00
604.79	777.00
604.92	791.50
605.04	782.75
605.17	790.25
605.29	783.50
605.42	767.50
605.54	872.50
605.66	827.25
605.79	820.75
605.91	794.00
606.04	797.00
606.16	776.25
606.29	804.75
606.41	768.50
606.53	791.75
606.66	757.75
606.78	789.75
606.91	783.75
607.03	782.25
607.16	772.00
607.28	760.00
607.40	803.75
607.53	819.25
607.65	767.25
607.78	773.00
607.90	800.25
608.03	900.50
608.15	812.25
608.27	826.75
608.40	765.50
608.52	810.00
608.65	800.50
608.77	833.75
608.89	809.00
609.02	876.25
609.14	876.50
609.27	829.75
609.39	841.50
609.52	780.00
609.64	738.50
609.76	774.25
609.89	798.00
610.01	854.75
610.14	836.50
610.26	798.75
610.38	768.50
610.51	835.75
610.63	779.50
610.76	763.50
610.88	819.25
611.01	865.00
611.13	889.50
611.25	837.50
611.38	771.50
611.50	799.75
611.63	825.00
611.75	813.75
611.87	820.00
612.00	779.50
612.12	835.75
612.25	793.25
612.37	771.00
612.49	863.75
612.62	832.75
612.74	869.50
612.87	802.50
612.99	796.75
613.11	745.25
613.24	786.50
613.36	788.50
613.49	808.25
613.61	805.25
613.73	785.50
613.86	835.00
613.98	766.50
614.11	831.50
614.23	834.50
614.35	841.25
614.48	838.75
614.60	814.50
614.72	796.75
614.85	818.25
614.97	807.50
615.10	800.75
615.22	792.00
615.34	806.00
615.47	845.50
615.59	775.75
615.72	796.25
615.84	818.00
615.96	776.00
616.09	881.75
616.21	792.00
616.34	788.50
616.46	793.00
616.58	826.25
616.71	819.00
616.83	834.25
616.95	838.50
617.08	832.50
617.20	802.25
617.33	764.75
617.45	792.25
617.57	817.25
617.70	807.50
617.82	779.00
617.95	802.25
618.07	868.50
618.19	827.00
618.32	808.00
618.44	782.25
618.56	762.00
618.69	741.00
618.81	750.75
618.94	826.75
619.06	798.75
619.18	792.25
619.31	752.00
619.43	761.75
619.55	819.50
619.68	821.75
619.80	766.50
619.92	815.75
620.05	920.50
620.17	855.00
620.30	802.00
620.42	821.50
620.54	839.50
620.67	789.00
620.79	806.00
620.91	815.75
621.04	864.75
621.16	784.75
621.29	773.00
621.41	752.00
621.53	791.00
621.66	798.00
621.78	780.75
621.90	835.00
622.03	891.00
622.15	807.00
622.27	799.75
622.40	809.00
622.52	782.00
622.64	788.00
622.77	760.75
622.89	804.50
623.02	836.25
623.14	816.75
623.26	824.00
623.39	824.75
623.51	855.50
623.63	788.25
623.76	777.50
623.88	849.75
624.00	801.50
624.13	766.25
624.25	768.50
624.37	759.25
624.50	841.50
624.62	824.50
624.75	760.75
624.87	762.25
624.99	818.00
625.12	777.00
625.24	791.00
625.36	875.25
625.49	825.50
625.61	822.50
625.73	811.75
625.86	845.50
625.98	802.50
626.10	779.00
626.23	756.75
626.35	813.50
626.47	788.00
626.60	772.00
626.72	774.00
626.84	777.00
626.97	809.50
627.09	792.00
627.21	790.25
627.34	895.50
627.46	888.00
627.58	804.75
627.71	809.50
627.83	841.50
627.95	768.00
628.08	803.25
628.20	836.25
628.32	749.25
628.45	724.75
628.57	741.50
628.69	762.00
628.82	816.25
628.94	851.25
629.06	804.25
629.19	774.25
629.31	825.50
629.43	764.75
629.56	816.75
629.68	808.25
629.80	844.75
629.93	770.50
630.05	773.25
630.17	760.25
630.30	782.00
630.42	773.50
630.54	826.25
630.67	795.25
630.79	774.25
630.91	908.00
631.04	817.75
631.16	806.50
631.28	817.25
631.41	772.75
631.53	757.75
631.65	806.75
631.78	819.25
631.90	803.25
632.02	797.00
632.14	724.25
632.27	854.25
632.39	801.25
632.51	786.00
632.64	839.00
632.76	802.75
632.88	774.00
633.01	805.00
633.13	796.25
633.25	802.25
633.38	903.50
633.50	749.50
633.62	748.25
633.75	739.25
633.87	733.50
633.99	809.75
634.11	749.50
634.24	778.75
634.36	791.25
634.48	785.00
634.61	791.50
634.73	821.50
634.85	780.75
634.98	768.25
635.10	782.50
635.22	793.25
635.35	905.25
635.47	815.50
635.59	788.00
635.71	822.50
635.84	844.25
635.96	786.50
636.08	832.00
636.21	777.25
636.33	803.25
636.45	800.50
636.58	770.75
636.70	746.25
636.82	816.75
636.94	771.75
637.07	751.25
637.19	825.50
637.31	817.75
637.44	815.50
637.56	755.00
637.68	807.75
637.81	808.25
637.93	798.75
638.05	753.75
638.17	838.25
638.30	902.25
638.42	795.00
638.54	765.50
638.67	786.25
638.79	791.50
638.91	767.25
639.03	791.00
639.16	778.25
639.28	787.00
639.40	799.25
639.53	770.50
639.65	827.50
639.77	794.75
639.89	802.00
640.02	795.75
640.14	804.25
640.26	759.25
640.39	821.25
640.51	775.50
640.63	813.50
640.75	841.75
640.88	794.00
641.00	772.25
641.12	768.00
641.24	871.25
641.37	787.25
641.49	757.00
641.61	896.25
641.74	767.75
641.86	813.75
641.98	760.75
642.10	808.50
642.23	814.75
642.35	778.00
642.47	812.75
642.60	803.75
642.72	824.75
642.84	732.75
642.96	756.50
643.09	754.75
643.21	753.50
643.33	761.75
643.45	769.25
643.58	838.75
643.70	866.50
643.82	777.50
643.94	783.50
644.07	790.50
644.19	802.50
644.31	802.25
644.44	793.50
644.56	785.50
644.68	761.00
644.80	757.75
644.93	760.25
645.05	766.25
645.17	803.75
645.29	806.25
645.42	812.00
645.54	797.00
645.66	812.75
645.78	784.00
645.91	770.25
646.03	819.25
646.15	863.25
646.27	775.00
646.40	797.25
646.52	825.50
646.64	834.50
646.76	787.75
646.89	738.00
647.01	818.00
647.13	815.00
647.25	833.25
647.38	785.00
647.50	761.75
647.62	828.00
647.74	751.25
647.87	764.25
647.99	796.00
648.11	820.25
648.23	794.00
648.36	739.25
648.48	853.50
648.60	798.75
648.72	775.75
648.85	761.50
648.97	829.75
649.09	809.25
649.21	778.25
649.34	802.75
649.46	813.50
649.58	808.50
649.70	811.25
649.83	773.50
649.95	839.50
650.07	827.75
650.19	829.25
650.32	800.25
650.44	847.50
650.56	812.00
650.68	775.75
650.81	779.00
650.93	770.50
651.05	858.00
651.17	773.00
651.29	812.25
651.42	781.25
651.54	826.25
651.66	764.25
651.78	762.25
651.91	814.25
652.03	898.00
652.15	816.50
652.27	774.75
652.40	801.00
652.52	792.75
652.64	813.75
652.76	774.25
652.88	883.25
653.01	796.50
653.13	757.00
653.25	732.00
653.37	827.50
653.50	840.75
653.62	821.25
653.74	754.50
653.86	831.50
653.98	825.75
654.11	764.50
654.23	784.75
654.35	778.25
654.47	902.75
654.60	779.50
654.72	780.50
654.84	758.25
654.96	830.50
655.08	774.50
655.21	806.50
655.33	790.00
655.45	832.25
655.57	796.00
655.70	791.75
655.82	828.00
655.94	856.25
656.06	822.00
656.18	759.75
656.31	846.75
656.43	815.25
656.55	764.00
656.67	782.75
656.79	787.25
656.92	835.00
657.04	816.25
657.16	781.00
657.28	903.25
657.40	811.25
657.53	819.75
657.65	781.50
657.77	840.25
657.89	844.25
658.01	790.75
658.14	762.50
658.26	822.25
658.38	780.50
658.50	758.00
658.62	754.50
658.75	916.75
658.87	835.75
658.99	820.50
659.11	774.25
659.23	839.75
659.36	888.25
659.48	841.50
659.60	819.00
659.72	811.75
659.84	794.75
659.97	818.75
660.09	830.00
660.21	912.75
660.33	850.75
660.45	747.25
660.58	719.00
660.70	773.50
660.82	787.25
660.94	747.00
661.06	795.00
661.19	853.00
661.31	838.25
661.43	799.50
661.55	787.00
661.67	832.75
661.80	860.75
661.92	796.00
662.04	806.50
662.16	800.00
662.28	855.75
662.40	799.50
662.53	803.00
662.65	823.00
662.77	765.25
662.89	809.75
663.01	768.25
663.14	792.25
663.26	818.50
663.38	795.00
663.50	761.00
663.62	778.25
663.74	799.25
663.87	773.25
663.99	804.00
664.11	817.75
664.23	900.25
664.35	788.75
664.48	769.25
664.60	787.25
664.72	782.50
664.84	747.00
664.96	788.00
665.08	839.25
665.21	807.75
665.33	834.50
665.45	752.00
665.57	789.75
665.69	872.00
665.81	791.00
665.94	763.50
666.06	765.00
666.18	804.75
666.30	785.50
666.42	767.25
666.54	800.25
666.67	815.75
666.79	777.00
666.91	827.25
667.03	775.50
667.15	744.25
667.27	780.25
667.40	762.00
667.52	780.75
667.64	833.50
667.76	781.25
667.88	752.00
668.00	824.50
668.13	834.75
668.25	768.25
668.37	766.25
668.49	775.75
668.61	834.50
668.73	790.25
668.85	800.00
668.98	810.25
669.10	807.50
669.22	784.50
669.34	791.00
669.46	834.50
669.58	786.50
669.71	796.00
669.83	795.00
669.95	785.50
670.07	795.25
670.19	774.25
670.31	781.50
670.43	782.00
670.56	812.25
670.68	842.75
670.80	810.00
670.92	807.00
671.04	840.25
671.16	778.50
671.28	770.50
671.41	778.00
671.53	821.75
671.65	777.00
671.77	784.50
671.89	930.75
672.01	889.75
672.13	829.75
672.26	765.75
672.38	798.50
672.50	768.50
672.62	795.00
672.74	811.00
672.86	792.75
672.98	794.75
673.11	794.50
673.23	803.00
673.35	848.25
673.47	797.00
673.59	796.25
673.71	755.00
673.83	832.00
673.96	909.25
674.08	802.00
674.20	755.50
674.32	793.25
674.44	805.00
674.56	824.50
674.68	816.50
674.80	825.25
674.93	790.25
675.05	783.50
675.17	801.50
675.29	832.75
675.41	829.25
675.53	796.00
675.65	789.00
675.77	796.00
675.90	846.50
676.02	770.50
676.14	768.00
676.26	855.25
676.38	889.25
676.50	804.75
676.62	818.25
676.74	767.75
676.87	784.25
676.99	807.00
677.11	836.00
677.23	808.50
677.35	830.00
677.47	748.50
677.59	772.25
677.71	820.25
677.83	823.50
677.96	802.50
678.08	795.25
678.20	799.00
678.32	766.75
678.44	788.50
678.56	782.75
678.68	924.75
678.80	834.50
678.93	790.75
679.05	805.25
679.17	794.50
679.29	846.75
679.41	796.50
679.53	765.50
679.65	769.00
679.77	805.75
679.89	788.00
680.01	830.00
680.14	825.25
680.26	731.25
680.38	789.25
680.50	827.50
680.62	876.75
680.74	818.75
680.86	788.75
680.98	806.00
681.10	818.50
681.22	907.00
681.35	785.75
681.47	787.50
681.59	767.25
681.71	869.00
681.83	796.00
681.95	779.25
682.07	854.75
682.19	820.50
682.31	786.00
682.43	755.75
682.56	825.00
682.68	758.50
682.80	757.25
682.92	812.25
683.04	804.00
683.16	788.25
683.28	774.00
683.40	829.50
683.52	803.00
683.64	817.00
683.76	756.50
683.89	776.50
684.01	789.50
684.13	856.75
684.25	807.75
684.37	808.50
684.49	837.75
684.61	790.25
684.73	797.50
684.85	784.75
684.97	764.25
685.09	854.75
685.21	768.50
685.34	793.00
685.46	920.00
685.58	819.50
685.70	813.25
685.82	844.50
685.94	771.50
686.06	771.75
686.18	774.25
686.30	789.75
686.42	762.75
686.54	822.75
686.66	764.50
686.79	867.00
686.91	809.00
687.03	896.50
687.15	832.00
687.27	801.50
687.39	797.75
687.51	870.00
687.63	812.75
687.75	856.50
687.87	825.50
687.99	870.50
688.11	774.50
688.23	817.75
688.35	847.25
688.48	830.25
688.60	764.50
688.72	790.75
688.84	813.50
688.96	826.25
689.08	796.25
689.20	791.75
689.32	918.50
689.44	816.75
689.56	757.75
689.68	769.25
689.80	789.00
689.92	772.50
690.04	787.50
690.16	829.25
690.28	813.50
690.41	817.50
690.53	779.00
690.65	836.50
690.77	852.75
690.89	851.00
691.01	796.50
691.13	774.25
691.25	762.75
691.37	790.75
691.49	746.00
691.61	748.75
691.73	871.50
691.85	800.50
691.97	788.75
692.09	767.50
692.21	838.50
692.33	861.25
692.45	815.25
692.57	776.75
692.70	804.00
692.82	818.25
692.94	737.25
693.06	768.75
693.18	797.25
693.30	777.75
693.42	773.75
693.54	817.50
693.66	819.50
693.78	811.25
693.90	780.50
694.02	798.75
694.14	819.50
694.26	777.75
694.38	808.00
694.50	819.00
694.62	823.00
694.74	760.25
694.86	761.75
694.98	805.00
695.10	815.25
695.22	847.00
695.34	792.25
695.46	783.00
695.58	786.25
695.71	811.75
695.83	781.00
695.95	779.25
696.07	853.75
696.19	771.25
696.31	780.50
696.43	756.25
696.55	867.25
696.67	806.25
696.79	777.50
696.91	799.75
697.03	776.00
697.15	877.75
697.27	807.50
697.39	775.50
697.51	829.50
697.63	774.50
697.75	778.00
697.87	808.25
697.99	755.00
698.11	722.25
698.23	760.50
698.35	774.00
698.47	785.50
698.59	810.25
698.71	784.25
698.83	832.50
698.95	771.00
699.07	811.00
699.19	778.50
699.31	796.75
699.43	767.50
699.55	813.25
699.67	779.75
699.79	780.75
699.91	781.50
700.03	801.25
700.15	799.25
700.27	758.00
700.39	792.00
700.51	752.75
700.63	784.00
700.75	781.50
700.87	820.75
700.99	783.00
701.11	820.25
701.24	792.25
701.36	832.25
701.48	837.25
701.60	828.00
701.72	774.50
701.84	860.50
701.96	809.25
702.08	795.00
702.20	871.50
702.32	826.75
702.44	818.25
702.56	786.25
702.68	794.00
702.80	806.25
702.92	883.25
703.04	861.00
703.16	807.00
703.28	806.00
703.40	789.50
703.52	814.00
703.64	820.00
703.76	813.25
703.88	788.25
704.00	773.25
704.12	796.00
704.24	845.50
704.36	808.50
704.48	811.50
704.60	763.25
704.72	788.50
704.84	787.50
704.96	814.25
705.07	801.00
705.19	767.50
705.31	785.25
705.43	830.25
705.55	785.50
705.67	814.25
705.79	800.75
705.91	738.00
706.03	793.50
706.15	801.25
706.27	778.50
706.39	777.00
706.51	777.75
706.63	779.25
706.75	822.50
706.87	807.00
706.99	857.00
707.11	798.25
707.23	780.75
707.35	815.00
707.47	806.00
707.59	831.25
707.71	833.50
707.83	788.75
707.95	835.25
708.07	790.50
708.19	908.75
708.31	810.00
708.43	762.00
708.55	816.00
708.67	849.25
708.79	812.25
708.91	835.75
709.03	812.75
709.15	849.50
709.27	773.25
709.39	812.00
709.51	792.00
709.63	818.00
709.75	824.50
709.87	756.50
709.99	830.75
710.11	775.25
710.23	775.50
710.35	759.25
710.47	898.25
710.58	849.50
710.70	843.75
710.82	848.25
710.94	799.00
711.06	798.25
711.18	812.25
711.30	780.25
711.42	831.00
711.54	795.50
711.66	827.25
711.78	777.25
711.90	829.25
712.02	862.75
712.14	774.25
712.26	755.75
712.38	845.00
712.50	856.25
712.62	789.75
712.74	784.00
712.86	778.00
712.98	843.50
713.10	773.75
713.22	760.25
713.34	812.50
713.45	779.00
713.57	811.50
713.69	771.50
713.81	784.25
713.93	806.50
714.05	791.00
714.17	754.50
714.29	859.50
714.41	848.50
714.53	787.50
714.65	815.25
714.77	804.00
714.89	765.25
715.01	855.50
715.13	773.25
715.25	811.25
715.37	770.00
715.49	756.25
715.61	815.75
715.72	820.50
715.84	848.50
715.96	795.25
716.08	789.00
716.20	866.75
716.32	838.25
716.44	793.75
716.56	795.00
716.68	806.50
716.80	879.25
716.92	851.25
717.04	810.75
717.16	822.75
717.28	795.25
717.40	791.00
717.52	805.25
717.63	778.25
717.75	799.50
717.87	807.00
717.99	814.00
718.11	791.00
718.23	867.00
718.35	824.75
718.47	804.75
718.59	753.00
718.71	791.50
718.83	784.25
718.95	823.50
719.07	764.75
719.19	789.50
719.30	793.75
719.42	802.25
719.54	795.25
719.66	806.75
719.78	805.50
719.90	743.00
720.02	794.25
720.14	811.25
720.26	834.75
720.38	818.75
720.50	785.50
720.62	734.75
720.74	800.50
720.85	804.75
720.97	863.75
721.09	888.25
721.21	782.75
721.33	863.75
721.45	809.00
721.57	818.75
721.69	773.75
721.81	752.25
721.93	854.75
722.05	812.75
722.16	772.25
722.28	744.50
722.40	777.75
722.52	859.25
722.64	866.25
722.76	766.75
722.88	812.75
723.00	826.00
723.12	777.50
723.24	810.00
723.36	743.00
723.47	831.75
723.59	809.25
723.71	794.75
723.83	827.75
723.95	786.50
724.07	796.00
724.19	816.00
724.31	870.75
724.43	769.75
724.55	739.75
724.66	769.25
724.78	925.75
724.90	777.25
725.02	771.75
725.14	789.25
725.26	798.75
725.38	737.25
725.50	801.50
725.62	809.00
725.74	799.75
725.85	788.75
725.97	804.25
726.09	859.75
726.21	1140.75
726.33	832.75
726.45	801.50
726.57	770.75
726.69	805.75
726.81	803.00
726.92	785.25
727.04	801.50
727.16	811.75
727.28	784.25
727.40	791.75
727.52	812.25
727.64	912.50
727.76	882.00
727.88	826.75
727.99	765.25
728.11	766.75
728.23	793.25
728.35	776.75
728.47	783.50
728.59	788.00
728.71	813.00
728.83	811.75
728.94	827.75
729.06	894.75
729.18	860.00
729.30	824.00
729.42	814.00
729.54	881.25
729.66	884.25
729.78	799.75
729.90	815.50
730.01	778.50
730.13	728.75
730.25	791.25
730.37	788.75
730.49	826.50
730.61	819.75
730.73	815.25
730.84	830.25
730.96	822.00
731.08	812.00
731.20	811.50
731.32	809.50
731.44	956.25
731.56	795.75
731.68	762.25
731.79	816.00
731.91	768.25
732.03	776.75
732.15	800.00
732.27	774.00
732.39	789.75
732.51	832.50
732.62	775.00
732.74	793.25
732.86	850.50
732.98	821.00
733.10	798.25
733.22	812.75
733.34	826.50
733.45	749.75
733.57	800.50
733.69	761.50
733.81	783.50
733.93	805.00
734.05	734.25
734.17	799.25
734.28	800.50
734.40	806.00
734.52	785.00
734.64	787.00
734.76	875.75
734.88	814.00
735.00	764.75
735.11	792.50
735.23	845.50
735.35	789.75
735.47	751.50
735.59	839.75
735.71	799.25
735.83	802.75
735.94	818.50
736.06	803.75
736.18	854.50
736.30	840.25
736.42	823.50
736.54	813.00
736.65	838.00
736.77	953.00
736.89	843.25
737.01	819.50
737.13	906.50
737.25	740.75
737.36	771.75
737.48	792.75
737.60	810.00
737.72	782.25
737.84	792.25
737.96	852.25
738.08	796.00
738.19	884.25
738.31	791.75
738.43	810.50
738.55	796.00
738.67	800.00
738.79	775.25
738.90	804.75
739.02	818.25
739.14	784.00
739.26	794.25
739.38	800.75
739.50	822.75
739.61	801.25
739.73	804.75
739.85	807.50
739.97	816.50
740.09	866.25
740.20	755.50
740.32	805.25
740.44	828.00
740.56	767.25
740.68	797.00
740.80	805.75
740.91	805.25
741.03	843.75
741.15	829.00
741.27	797.00
741.39	841.50
741.51	816.50
741.62	843.00
741.74	807.50
741.86	797.25
741.98	779.00
742.10	811.75
742.21	816.00
742.33	806.00
742.45	773.50
742.57	857.75
742.69	801.00
742.80	838.75
742.92	793.75
743.04	790.50
743.16	791.75
743.28	846.25
743.40	777.00
743.51	780.75
743.63	775.50
743.75	807.50
743.87	801.50
743.99	820.25
744.10	795.25
744.22	801.00
744.34	777.50
744.46	829.25
744.58	816.75
744.69	745.25
744.81	801.50
744.93	759.25
745.05	763.75
745.17	881.00
745.28	873.75
745.40	832.25
745.52	808.25
745.64	809.00
745.76	850.50
745.87	794.50
745.99	779.25
746.11	808.00
746.23	774.00
746.35	805.50
746.46	782.75
746.58	906.00
746.70	821.75
746.82	819.00
746.94	796.50
747.05	780.25
747.17	753.25
747.29	749.00
747.41	793.25
747.53	920.50
747.64	793.00
747.76	847.75
747.88	851.50
748.00	854.00
748.12	812.75
748.23	802.50
748.35	817.25
748.47	847.00
748.59	841.75
748.70	788.00
748.82	772.25
748.94	772.50
749.06	783.50
749.18	796.75
749.29	773.50
749.41	817.75
749.53	803.00
749.65	794.50
749.76	842.50
749.88	802.25
750.00	820.00
750.12	839.50
750.24	820.75
750.35	798.50
750.47	765.75
750.59	830.50
750.71	804.50
750.82	844.50
750.94	781.25
751.06	799.50
751.18	785.50
751.30	841.25
751.41	835.25
751.53	841.25
751.65	780.75
751.77	776.75
751.88	824.75
752.00	851.50
752.12	765.50
752.24	861.25
752.35	827.00
752.47	837.75
752.59	849.25
752.71	877.00
752.83	788.75
752.94	862.50
753.06	787.50
753.18	814.00
753.30	782.50
753.41	738.75
753.53	786.75
753.65	784.50
753.77	844.25
753.88	781.25
754.00	814.25
754.12	805.75
754.24	871.50
754.35	792.00
754.47	755.00
754.59	840.00
754.71	825.00
754.82	805.50
754.94	802.25
755.06	867.75
755.18	826.00
755.29	816.25
755.41	797.00
755.53	834.75
755.65	778.00
755.76	810.00
755.88	806.00
756.00	871.50
756.12	793.50
756.23	719.25
756.35	774.75
756.47	843.00
756.59	794.50
756.70	780.25
756.82	786.50
756.94	794.50
757.06	823.25
757.17	818.25
757.29	802.00
757.41	753.50
757.53	822.50
757.64	800.75
757.76	808.50
757.88	816.75
758.00	829.00
758.11	786.50
758.23	766.25
758.35	827.50
758.47	767.25
758.58	821.75
758.70	767.25
758.82	787.25
758.94	766.00
759.05	809.50
759.17	758.25
759.29	795.75
759.40	865.25
759.52	797.50
759.64	792.75
759.76	812.25
759.87	822.50
759.99	826.00
760.11	789.25
760.23	815.25
760.34	844.75
760.46	816.50
760.58	793.75
760.70	813.75
760.81	857.50
760.93	814.00
761.05	832.75
761.16	819.00
761.28	792.00
761.40	788.00
761.52	774.25
761.63	851.50
761.75	831.25
761.87	787.50
761.98	758.00
762.10	835.75
762.22	805.00
762.34	842.25
762.45	791.50
762.57	831.50
762.69	920.25
762.81	802.25
762.92	826.75
763.04	757.75
763.16	828.50
763.27	827.75
763.39	790.75
763.51	829.75
763.63	830.00
763.74	790.75
763.86	760.00
763.98	771.75
764.09	796.25
764.21	815.50
764.33	766.50
764.44	783.50
764.56	814.75
764.68	787.00
764.80	806.50
764.91	753.25
765.03	867.25
765.15	806.50
765.26	806.25
765.38	779.75
765.50	836.75
765.62	806.00
765.73	802.25
765.85	815.50
765.97	762.75
766.08	805.00
766.20	824.75
766.32	828.00
766.43	841.00
766.55	826.75
766.67	794.00
766.79	804.50
766.90	770.00
767.02	744.50
767.14	759.00
767.25	775.25
767.37	889.75
767.49	826.25
767.60	793.50
767.72	862.25
767.84	835.75
767.95	787.25
768.07	772.50
768.19	818.75
768.31	830.25
768.42	805.25
768.54	801.75
768.66	798.75
768.77	835.00
768.89	798.50
769.01	776.50
769.12	827.00
769.24	814.75
769.36	774.00
769.47	769.25
769.59	767.50
769.71	817.00
769.82	796.00
769.94	786.75
770.06	759.50
770.17	841.75
770.29	807.75
770.41	837.75
770.53	825.00
770.64	766.25
770.76	809.50
770.88	824.25
770.99	840.25
771.11	775.00
771.23	815.75
771.34	808.50
771.46	896.00
771.58	867.00
771.69	841.50
771.81	806.50
771.93	849.75
772.04	782.00
772.16	836.75
772.28	807.75
772.39	851.75
772.51	807.50
772.63	828.50
772.74	799.25
772.86	796.50
772.98	911.50
773.09	779.25
773.21	790.50
773.33	825.50
773.44	829.25
773.56	801.50
773.68	814.00
773.79	858.50
773.91	795.75
774.03	811.75
774.14	800.00
774.26	853.50
774.38	774.25
774.49	766.50
774.61	802.25
774.73	808.50
774.84	792.25
774.96	785.50
775.08	809.50
775.19	838.75
775.31	856.25
775.43	811.00
775.54	785.25
775.66	757.00
775.77	844.25
775.89	778.50
776.01	846.50
776.12	844.25
776.24	817.75
776.36	763.25
776.47	774.75
776.59	822.00
776.71	860.00
776.82	749.75
776.94	769.00
777.06	794.00
777.17	872.75
777.29	767.50
777.41	788.75
777.52	825.50
777.64	820.00
777.75	836.50
777.87	752.25
777.99	791.50
778.10	843.75
778.22	791.50
778.34	814.00
778.45	806.00
778.57	848.25
778.69	844.50
778.80	819.75
778.92	906.75
779.04	825.50
779.15	813.75
779.27	849.50
779.38	835.75
779.50	862.75
779.62	760.00
779.73	807.75
779.85	761.25
779.97	913.50
780.08	812.00
780.20	807.75
780.31	834.75
780.43	841.75
780.55	792.00
780.66	814.50
780.78	835.50
780.90	905.00
781.01	783.50
781.13	804.50
781.25	794.50
781.36	863.50
781.48	789.00
781.59	805.25
781.71	843.25
781.83	832.50
781.94	777.50
782.06	789.75
782.18	851.50
782.29	811.75
782.41	774.25
782.52	849.75
782.64	859.25
782.76	826.50
782.87	825.50
782.99	802.75
783.10	932.00
783.22	939.25
783.34	803.00
783.45	814.25
783.57	810.25
783.69	787.00
783.80	820.25
783.92	836.25
784.03	812.50
784.15	788.50
784.27	807.00
784.38	786.75
784.50	806.50
784.61	807.75
784.73	785.50
784.85	795.75
784.96	790.50
785.08	863.75
785.19	856.00
785.31	797.25
785.43	776.75
785.54	776.25
785.66	835.50
785.77	815.25
785.89	826.75
786.01	765.50
786.12	808.25
786.24	820.75
786.35	882.75
786.47	822.25
786.59	783.75
786.70	776.25
786.82	823.50
786.93	824.50
787.05	803.50
787.17	830.75
787.28	802.25
787.40	813.50
787.51	827.50
787.63	831.25
787.75	769.75
787.86	811.25
787.98	835.75
788.09	806.50
788.21	820.00
788.33	857.00
788.44	830.50
788.56	790.25
788.67	843.25
788.79	799.00
788.91	822.00
789.02	789.50
789.14	803.75
789.25	901.75
789.37	847.00
789.48	790.50
789.60	823.25
789.72	781.75
789.83	836.75
789.95	812.75
790.06	763.25
790.18	781.00
790.30	830.75
790.41	821.00
790.53	787.50
790.64	767.25
790.76	777.50
790.87	799.00
790.99	809.75
791.11	815.25
791.22	795.50
791.34	807.50
791.45	843.25
791.57	833.50
791.68	798.50
791.80	785.25
791.92	837.00
792.03	785.50
792.15	762.25
792.26	792.75
792.38	760.25
792.49	824.25
792.61	805.75
792.73	813.25
792.84	803.75
792.96	894.00
793.07	806.50
793.19	1561.00
793.30	902.00
793.42	845.25
793.54	745.75
793.65	767.00
793.77	939.75
793.88	799.75
794.00	768.75
794.11	811.25
794.23	756.50
794.34	814.50
794.46	746.00
794.58	756.75
794.69	889.25
794.81	891.00
794.92	767.75
795.04	776.50
795.15	882.25
795.27	844.25
795.39	809.00
795.50	779.50
795.62	781.50
795.73	800.25
795.85	785.50
795.96	818.75
796.08	864.25
796.19	786.50
796.31	784.00
796.42	767.75
796.54	791.50
796.66	840.75
796.77	768.00
796.89	749.50
797.00	844.25
797.12	737.75
797.23	794.00
797.35	823.00
797.46	838.25
797.58	867.75
797.69	832.50
797.81	796.00
797.93	793.50
798.04	783.00
798.16	781.25
798.27	821.25
798.39	776.00
798.50	758.25
798.62	762.25
798.73	769.25
798.85	877.00
798.96	811.00
799.08	835.75
799.19	842.50
799.31	812.50
799.43	805.25
799.54	797.25
799.66	823.25
799.77	843.50
799.89	783.25
800.00	744.25
800.12	791.25
800.23	849.00
800.35	885.25
800.46	747.25
800.58	732.50
800.69	799.00
800.81	789.50
800.92	761.50
801.04	800.00
801.16	745.75
801.27	755.50
801.39	770.50
801.50	788.25
801.62	795.75
801.73	854.00
801.85	843.50
801.96	766.25
802.08	854.25
802.19	848.75
802.31	789.00
802.42	805.75
802.54	883.25
802.65	854.75
802.77	776.50
802.88	844.00
803.00	760.75
803.11	902.75
803.23	799.25
803.34	797.50
803.46	831.50
803.57	763.25
803.69	845.75
803.80	770.25
803.92	856.25
804.03	793.75
804.15	812.75
804.26	835.50
804.38	840.50
804.50	771.75
804.61	813.75
804.73	806.25
804.84	809.50
804.96	743.50
805.07	797.75
805.19	772.00
805.30	826.75
805.42	851.50
805.53	804.50
805.65	787.75
805.76	749.75
805.88	783.25
805.99	815.00
806.11	822.50
806.22	778.75
806.34	796.25
806.45	799.50
806.57	792.75
806.68	838.25
806.80	743.25
806.91	775.00
807.03	766.50
807.14	748.75
807.26	751.50
807.37	751.00
807.49	815.75
807.60	782.00
807.72	870.25
807.83	880.00
807.95	818.00
808.06	816.50
808.17	816.75
808.29	843.75
808.40	772.75
808.52	802.50
808.63	816.25
808.75	820.25
808.86	806.00
808.98	827.00
809.09	777.75
809.21	808.50
809.32	778.00
809.44	826.50
809.55	760.25
809.67	812.75
809.78	777.75
809.90	835.25
810.01	863.25
810.13	792.25
810.24	837.75
810.36	756.25
810.47	779.25
810.59	805.25
810.70	829.50
810.82	844.00
810.93	764.00
811.05	771.00
811.16	781.25
811.27	771.25
811.39	805.50
811.50	845.00
811.62	760.25
811.73	742.50
811.85	826.50
811.96	811.75
812.08	824.00
812.19	803.75
812.31	829.00
812.42	795.25
812.54	781.75
812.65	849.00
812.77	852.50
812.88	844.25
813.00	838.00
813.11	834.50
813.22	778.00
813.34	783.50
813.45	806.00
813.57	885.50
813.68	893.75
813.80	810.25
813.91	774.50
814.03	799.75
814.14	894.50
814.26	786.00
814.37	813.50
814.49	800.25
814.60	787.50
814.71	787.75
814.83	803.50
814.94	762.00
815.06	790.50
815.17	805.25
815.29	799.00
815.40	769.00
815.52	881.50
815.63	802.75
815.75	779.50
815.86	813.50
815.97	769.25
816.09	808.50
816.20	826.75
816.32	828.50
816.43	764.50
816.55	819.25
816.66	794.75
816.78	888.75
816.89	810.75
817.00	812.00
817.12	781.25
817.23	769.75
817.35	839.50
817.46	810.50
817.58	772.00
817.69	924.25
817.81	813.25
817.92	841.25
818.03	815.00
818.15	812.00
818.26	772.50
818.38	774.25
818.49	801.00
818.61	816.50
818.72	767.25
818.83	1644.25
818.95	909.75
819.06	782.75
819.18	798.50
819.29	819.75
819.41	818.50
819.52	821.00
819.64	815.75
819.75	779.25
819.86	763.25
819.98	793.25
820.09	827.00
820.21	809.25
820.32	777.50
820.44	825.50
820.55	881.00
820.66	794.50
820.78	839.00
820.89	804.75
821.01	832.25
821.12	816.75
821.23	823.25
821.35	795.25
821.46	856.75
821.58	817.50
821.69	798.50
821.81	781.25
821.92	865.50
822.03	802.25
822.15	823.50
822.26	776.00
822.38	781.75
822.49	828.50
822.61	823.50
822.72	815.00
822.83	856.00
822.95	812.75
823.06	819.25
823.18	865.00
823.29	881.25
823.40	834.00
823.52	800.75
823.63	764.75
823.75	896.25
823.86	814.75
823.97	773.75
824.09	850.00
824.20	781.25
824.32	836.25
824.43	801.75
824.55	852.50
824.66	895.50
824.77	805.50
824.89	821.75
825.00	868.75
825.12	819.75
825.23	835.00
825.34	777.00
825.46	784.75
825.57	845.75
825.69	799.25
825.80	735.75
825.91	788.00
826.03	762.50
826.14	834.25
826.26	777.75
826.37	811.25
826.48	798.00
826.60	814.25
826.71	788.50
826.83	816.00
826.94	819.25
827.05	855.00
827.17	842.75
827.28	805.25
827.39	791.75
827.51	773.75
827.62	806.00
827.74	809.25
827.85	795.75
827.96	779.75
828.08	804.50
828.19	897.00
828.31	803.50
828.42	759.50
828.53	825.50
828.65	856.75
828.76	859.75
828.87	834.00
828.99	774.25
