Wavelength (nm)	Intensity
377.35	813.75
377.48	595.00
377.62	612.25
377.75	616.75
377.88	815.50
378.02	794.25
378.15	800.50
378.28	772.75
378.41	848.25
378.55	813.50
378.68	794.75
378.81	782.50
378.95	806.25
379.08	789.25
379.21	763.50
379.35	823.25
379.48	822.00
379.61	885.25
379.74	802.75
379.88	786.00
380.01	849.25
380.14	910.25
380.28	847.00
380.41	766.50
380.54	808.00
380.68	823.25
380.81	749.75
380.94	824.00
381.07	862.75
381.21	870.00
381.34	802.50
381.47	749.00
381.61	931.25
381.74	814.75
381.87	777.75
382.00	824.00
382.14	882.50
382.27	843.00
382.40	783.00
382.54	861.25
382.67	864.25
382.80	774.25
382.93	777.00
383.07	806.00
383.20	808.25
383.33	841.25
383.47	780.75
383.60	760.00
383.73	944.50
383.86	839.25
384.00	794.00
384.13	790.00
384.26	839.75
384.40	853.75
384.53	807.25
384.66	858.00
384.79	820.75
384.93	781.00
385.06	789.75
385.19	812.25
385.33	922.00
385.46	839.50
385.59	781.25
385.72	818.50
385.86	761.25
385.99	797.00
386.12	792.50
386.25	774.50
386.39	853.00
386.52	863.00
386.65	796.25
386.79	801.00
386.92	788.25
387.05	875.25
387.18	759.25
387.32	773.50
387.45	843.75
387.58	813.75
387.71	789.50
387.85	781.75
387.98	818.25
388.11	837.25
388.25	819.75
388.38	812.50
388.51	836.25
388.64	837.75
388.78	781.75
388.91	764.75
389.04	802.00
389.17	911.00
389.31	818.25
389.44	830.50
389.57	863.50
389.70	835.25
389.84	788.00
389.97	791.25
390.10	783.50
390.24	834.00
390.37	796.50
390.50	784.00
390.63	874.75
390.77	806.50
390.90	806.00
391.03	801.00
391.16	762.50
391.30	786.25
391.43	797.50
391.56	792.75
391.69	783.25
391.83	850.50
391.96	805.75
392.09	796.50
392.22	886.25
392.36	816.50
392.49	773.50
392.62	800.50
392.75	827.00
392.89	873.75
393.02	780.50
393.15	771.25
393.28	754.25
393.42	898.75
393.55	765.25
393.68	790.75
393.81	744.25
393.95	786.25
394.08	782.75
394.21	788.75
394.34	845.50
394.48	837.25
394.61	845.75
394.74	819.00
394.87	848.75
395.01	824.25
395.14	828.50
395.27	788.00
395.40	901.25
395.54	899.25
395.67	813.00
395.80	795.25
395.93	828.75
396.07	776.25
396.20	786.50
396.33	739.00
396.46	787.00
396.59	805.50
396.73	794.25
396.86	771.50
396.99	861.00
397.12	821.00
397.26	810.25
397.39	807.75
397.52	1086.00
397.65	914.25
397.79	812.50
397.92	801.25
398.05	852.25
398.18	789.75
398.32	798.00
398.45	835.75
398.58	819.50
398.71	822.25
398.84	767.50
398.98	796.25
399.11	835.25
399.24	832.50
399.37	797.25
399.51	767.25
399.64	805.25
399.77	813.75
399.90	812.00
400.03	806.75
400.17	764.25
400.30	865.25
400.43	836.50
400.56	813.00
400.70	809.75
400.83	781.00
400.96	780.75
401.09	805.50
401.23	814.50
401.36	872.75
401.49	794.50
401.62	806.25
401.75	798.75
401.89	779.25
402.02	796.50
402.15	806.50
402.28	824.50
402.41	817.50
402.55	786.00
402.68	797.75
402.81	878.50
402.94	853.00
403.08	790.75
403.21	758.75
403.34	840.75
403.47	838.00
403.60	800.00
403.74	838.75
403.87	837.00
404.00	784.50
404.13	782.00
404.26	761.00
404.40	767.25
404.53	810.75
404.66	794.50
404.79	774.00
404.93	838.75
405.06	808.50
405.19	753.50
405.32	808.50
405.45	823.75
405.59	834.00
405.72	804.00
405.85	774.75
405.98	966.25
406.11	770.50
406.25	771.00
406.38	789.25
406.51	829.00
406.64	808.50
406.77	758.75
406.91	759.50
407.04	827.25
407.17	795.75
407.30	822.00
407.43	804.25
407.57	889.25
407.70	865.00
407.83	773.00
407.96	803.00
408.09	770.25
408.23	887.00
408.36	805.75
408.49	793.25
408.62	914.50
408.75	814.25
408.89	776.25
409.02	820.25
409.15	813.50
409.28	879.25
409.41	831.50
409.55	785.50
409.68	923.75
409.81	825.75
409.94	781.00
410.07	808.25
410.20	804.75
410.34	801.25
410.47	809.50
410.60	814.25
410.73	832.75
410.86	775.75
411.00	806.75
411.13	770.50
411.26	813.25
411.39	819.50
411.52	823.50
411.66	794.25
411.79	785.50
411.92	771.00
412.05	796.50
412.18	797.50
412.31	829.25
412.45	844.50
412.58	845.50
412.71	760.50
412.84	829.75
412.97	876.50
413.11	815.75
413.24	817.75
413.37	843.25
413.50	901.25
413.63	814.25
413.76	796.50
413.90	837.75
414.03	796.75
414.16	795.00
414.29	821.00
414.42	806.25
414.56	906.75
414.69	790.00
414.82	808.25
414.95	797.75
415.08	822.00
415.21	801.75
415.35	819.75
415.48	738.50
415.61	845.75
415.74	860.25
415.87	763.25
416.00	811.25
416.14	917.25
416.27	814.50
416.40	779.50
416.53	801.50
416.66	827.25
416.79	808.50
416.93	772.75
417.06	860.00
417.19	816.00
417.32	794.75
417.45	797.00
417.58	753.00
417.72	855.50
417.85	786.00
417.98	800.50
418.11	830.00
418.24	786.00
418.37	797.50
418.51	808.00
418.64	807.50
418.77	879.75
418.90	820.00
419.03	770.75
419.16	823.00
419.29	846.00
419.43	791.25
419.56	773.75
419.69	913.00
419.82	853.00
419.95	815.25
420.08	847.50
420.22	867.00
420.35	921.00
420.48	844.75
420.61	802.75
420.74	754.00
420.87	832.75
421.00	768.50
421.14	800.75
421.27	844.75
421.40	875.75
421.53	830.75
421.66	818.75
421.79	802.00
421.93	804.50
422.06	802.75
422.19	785.75
422.32	846.50
422.45	849.50
422.58	818.50
422.71	792.25
422.85	846.50
422.98	843.50
423.11	759.75
423.24	759.00
423.37	772.75
423.50	782.25
423.63	808.75
423.77	772.25
423.90	774.50
424.03	820.00
424.16	832.00
424.29	806.25
424.42	761.50
424.55	772.50
424.69	776.00
424.82	807.00
424.95	821.50
425.08	776.75
425.21	823.50
425.34	787.75
425.47	802.00
425.60	816.00
425.74	762.00
425.87	784.50
426.00	805.25
426.13	808.75
426.26	776.00
426.39	784.50
426.52	800.25
426.66	867.75
426.79	826.75
426.92	779.00
427.05	902.00
427.18	872.75
427.31	796.00
427.44	785.50
427.57	775.75
427.71	808.50
427.84	767.25
427.97	804.25
428.10	871.00
428.23	812.25
428.36	785.75
428.49	720.00
428.62	931.25
428.76	899.75
428.89	816.75
429.02	755.50
429.15	799.25
429.28	898.00
429.41	790.00
429.54	798.50
429.67	787.75
429.81	833.50
429.94	801.25
430.07	786.25
430.20	849.75
430.33	871.50
430.46	774.50
430.59	778.75
430.72	804.50
430.85	763.00
430.99	793.00
431.12	774.00
431.25	857.25
431.38	870.50
431.51	807.00
431.64	811.00
431.77	878.00
431.90	869.75
432.03	809.25
432.17	775.50
432.30	804.25
432.43	820.75
432.56	803.00
432.69	820.75
432.82	819.00
432.95	858.50
433.08	800.50
433.21	808.75
433.35	797.25
433.48	798.75
433.61	769.25
433.74	806.75
433.87	779.50
434.00	835.00
434.13	779.00
434.26	826.75
434.39	819.25
434.53	826.50
434.66	790.75
434.79	788.75
434.92	784.25
435.05	866.00
435.18	781.00
435.31	823.00
435.44	858.00
435.57	811.00
435.70	799.00
435.84	777.75
435.97	875.75
436.10	910.25
436.23	791.75
436.36	773.25
436.49	792.00
436.62	827.75
436.75	800.25
436.88	826.00
437.01	773.25
437.14	776.75
437.28	759.25
437.41	793.25
437.54	856.75
437.67	831.75
437.80	782.75
437.93	756.50
438.06	918.50
438.19	855.75
438.32	767.50
438.45	778.75
438.58	829.25
438.72	876.50
438.85	843.00
438.98	799.75
439.11	823.75
439.24	874.75
439.37	866.50
439.50	841.25
439.63	848.50
439.76	787.25
439.89	785.50
440.02	789.50
440.15	825.25
440.29	870.00
440.42	808.75
440.55	800.00
440.68	874.00
440.81	926.50
440.94	818.75
441.07	804.25
441.20	900.25
441.33	828.00
441.46	795.50
441.59	786.75
441.72	808.00
441.85	815.75
441.99	834.00
442.12	836.75
442.25	899.75
442.38	833.75
442.51	820.00
442.64	759.25
442.77	814.00
442.90	788.75
443.03	762.25
443.16	787.75
443.29	812.75
443.42	870.25
443.55	787.50
443.68	816.50
443.82	767.50
443.95	785.25
444.08	788.50
444.21	796.25
444.34	781.50
444.47	799.25
444.60	801.25
444.73	816.25
444.86	814.00
444.99	880.25
445.12	827.75
445.25	820.25
445.38	814.75
445.51	853.25
445.64	819.75
445.78	789.00
445.91	749.50
446.04	916.00
446.17	846.50
446.30	752.25
446.43	824.00
446.56	802.75
446.69	771.50
446.82	788.75
446.95	840.75
447.08	853.75
447.21	813.00
447.34	785.75
447.47	849.50
447.60	844.75
447.73	805.75
447.86	837.50
447.99	821.50
448.13	815.50
448.26	838.50
448.39	799.00
448.52	831.75
448.65	846.75
448.78	797.50
448.91	800.50
449.04	828.50
449.17	789.25
449.30	832.25
449.43	818.00
449.56	812.00
449.69	861.75
449.82	800.25
449.95	760.25
450.08	857.75
450.21	835.75
450.34	812.50
450.47	803.25
450.60	844.00
450.73	817.75
450.87	804.25
451.00	830.50
451.13	851.75
451.26	958.75
451.39	796.50
451.52	821.00
451.65	799.50
451.78	791.50
451.91	793.00
452.04	777.25
452.17	880.75
452.30	882.25
452.43	790.25
452.56	786.75
452.69	859.50
452.82	776.50
452.95	845.50
453.08	782.50
453.21	740.00
453.34	835.75
453.47	788.75
453.60	846.25
453.73	891.00
453.86	837.00
453.99	818.25
454.12	824.00
454.25	804.25
454.38	816.50
454.52	775.00
454.65	802.00
454.78	784.25
454.91	754.25
455.04	784.25
455.17	768.75
455.30	783.25
455.43	868.00
455.56	790.75
455.69	768.50
455.82	822.00
455.95	813.75
456.08	766.50
456.21	765.75
456.34	755.00
456.47	739.50
456.60	787.50
456.73	767.25
456.86	795.00
456.99	822.50
457.12	775.25
457.25	790.50
457.38	856.00
457.51	846.75
457.64	815.50
457.77	784.75
457.90	793.25
458.03	780.75
458.16	793.25
458.29	803.75
458.42	805.50
458.55	755.50
458.68	778.25
458.81	794.50
458.94	869.50
459.07	903.00
459.20	767.00
459.33	778.00
459.46	857.25
459.59	897.50
459.72	856.50
459.85	806.25
459.98	876.75
460.11	833.75
460.24	812.00
460.37	767.75
460.50	847.50
460.63	806.50
460.76	791.25
460.89	806.50
461.02	840.25
461.15	844.75
461.28	803.75
461.41	789.75
461.54	875.00
461.67	772.25
461.80	801.75
461.93	847.50
462.06	831.25
462.19	849.75
462.32	790.50
462.45	783.00
462.58	833.75
462.71	792.25
462.84	802.25
462.97	741.50
463.10	797.75
463.23	816.25
463.36	839.00
463.49	809.50
463.62	758.50
463.75	825.00
463.88	800.25
464.01	806.00
464.14	770.00
464.27	894.50
464.40	803.00
464.53	799.25
464.66	832.00
464.79	823.50
464.92	813.75
465.05	780.50
465.18	806.75
465.31	807.75
465.44	799.00
465.57	781.75
465.70	788.75
465.83	910.75
465.96	816.00
466.09	780.25
466.22	843.50
466.35	827.25
466.48	783.75
466.61	782.50
466.74	799.00
466.87	842.00
467.00	831.50
467.13	821.00
467.26	831.00
467.39	759.75
467.52	762.75
467.65	796.25
467.78	876.25
467.91	809.75
468.04	811.75
468.17	780.25
468.30	792.75
468.43	756.00
468.56	776.00
468.69	822.00
468.82	840.75
468.95	771.50
469.08	798.25
469.21	805.75
469.34	842.25
469.47	905.50
469.60	878.25
469.73	816.75
469.86	821.50
469.99	847.75
470.11	769.25
470.24	791.50
470.37	840.50
470.50	814.25
470.63	788.25
470.76	797.75
470.89	850.50
471.02	905.50
471.15	789.75
471.28	797.00
471.41	903.25
471.54	825.50
471.67	797.25
471.80	739.75
471.93	847.00
472.06	816.75
472.19	795.50
472.32	778.50
472.45	899.50
472.58	853.25
472.71	810.25
472.84	787.75
472.97	785.50
473.10	761.25
473.23	842.25
473.36	752.25
473.49	859.25
473.62	847.75
473.74	823.50
473.87	846.75
474.00	780.50
474.13	776.75
474.26	814.00
474.39	836.75
474.52	808.25
474.65	787.75
474.78	801.00
474.91	754.50
475.04	831.50
475.17	919.25
475.30	826.50
475.43	818.75
475.56	863.00
475.69	804.25
475.82	830.50
475.95	775.50
476.08	864.50
476.21	809.25
476.34	850.75
476.46	842.75
476.59	876.25
476.72	787.25
476.85	792.25
476.98	773.50
477.11	859.25
477.24	811.50
477.37	750.50
477.50	782.50
477.63	807.50
477.76	771.25
477.89	739.00
478.02	755.50
478.15	805.25
478.28	791.25
478.41	832.00
478.54	790.75
478.66	845.00
478.79	804.75
478.92	797.75
479.05	798.25
479.18	803.50
479.31	774.50
479.44	785.75
479.57	771.25
479.70	797.25
479.83	814.25
479.96	787.50
480.09	829.25
480.22	931.50
480.35	916.25
480.48	848.75
480.60	808.00
480.73	785.00
480.86	827.25
480.99	799.25
481.12	796.75
481.25	808.00
481.38	865.75
481.51	793.50
481.64	809.00
481.77	831.50
481.90	797.25
482.03	797.50
482.16	790.00
482.29	869.25
482.41	806.50
482.54	827.25
482.67	784.25
482.80	808.75
482.93	857.75
483.06	778.50
483.19	859.00
483.32	830.50
483.45	809.00
483.58	813.25
483.71	847.00
483.84	849.25
483.97	818.50
484.09	803.25
484.22	785.00
484.35	782.50
484.48	758.75
484.61	777.75
484.74	793.00
484.87	819.25
485.00	768.50
485.13	823.25
485.26	773.00
485.39	828.25
485.52	798.50
485.64	872.50
485.77	830.75
485.90	864.75
486.03	773.00
486.16	812.50
486.29	767.75
486.42	797.00
486.55	822.25
486.68	798.25
486.81	821.75
486.94	810.00
487.06	790.50
487.19	840.00
487.32	825.25
487.45	816.75
487.58	782.25
487.71	805.50
487.84	773.75
487.97	840.00
488.10	852.25
488.23	792.50
488.35	753.00
488.48	792.00
488.61	765.50
488.74	788.25
488.87	784.50
489.00	811.75
489.13	890.00
489.26	832.00
489.39	834.00
489.52	843.25
489.64	835.75
489.77	816.25
489.90	809.75
490.03	799.75
490.16	778.00
490.29	780.00
490.42	770.75
490.55	814.75
490.68	767.25
490.81	791.25
490.93	757.75
491.06	859.00
491.19	832.50
491.32	815.25
491.45	837.25
491.58	759.75
491.71	806.50
491.84	797.00
491.97	794.50
492.09	862.75
492.22	815.25
492.35	803.75
492.48	838.50
492.61	822.75
492.74	806.25
492.87	822.00
493.00	804.00
493.12	777.25
493.25	802.50
493.38	800.00
493.51	777.00
493.64	758.00
493.77	809.25
493.90	821.75
494.03	827.00
494.16	853.75
494.28	871.00
494.41	809.25
494.54	809.50
494.67	911.25
494.80	878.25
494.93	798.50
495.06	833.25
495.19	832.75
495.31	816.50
495.44	794.75
495.57	778.25
495.70	826.50
495.83	803.25
495.96	768.75
496.09	810.50
496.22	872.50
496.34	892.50
496.47	806.25
496.60	831.75
496.73	859.00
496.86	850.00
496.99	772.50
497.12	806.50
497.24	747.50
497.37	812.25
497.50	794.50
497.63	772.50
497.76	807.25
497.89	869.50
498.02	836.25
498.15	725.25
498.27	811.75
498.40	846.00
498.53	867.25
498.66	823.50
498.79	857.00
498.92	779.50
499.05	823.75
499.17	805.50
499.30	840.00
499.43	889.00
499.56	821.50
499.69	760.75
499.82	822.50
499.95	795.75
500.07	780.00
500.20	803.00
500.33	856.00
500.46	938.00
500.59	812.50
500.72	822.00
500.85	864.50
500.97	851.75
501.10	859.75
501.23	777.75
501.36	821.50
501.49	875.75
501.62	837.00
501.75	822.25
501.87	860.25
502.00	766.75
502.13	817.50
502.26	821.00
502.39	799.50
502.52	795.50
502.64	759.25
502.77	786.00
502.90	838.50
503.03	810.50
503.16	788.50
503.29	778.00
503.42	858.00
503.54	824.50
503.67	811.75
503.80	816.00
503.93	857.00
504.06	772.50
504.19	812.00
504.31	860.50
504.44	816.50
504.57	830.75
504.70	817.50
504.83	768.00
504.96	833.50
505.08	809.50
505.21	822.00
505.34	909.00
505.47	866.00
505.60	842.00
505.73	865.50
505.85	850.75
505.98	940.50
506.11	804.75
506.24	785.75
506.37	787.25
506.50	817.00
506.62	844.25
506.75	785.75
506.88	780.25
507.01	813.50
507.14	766.75
507.27	793.75
507.39	774.50
507.52	794.25
507.65	790.50
507.78	833.50
507.91	780.50
508.04	866.75
508.16	873.75
508.29	825.75
508.42	797.50
508.55	772.75
508.68	776.50
508.81	850.75
508.93	791.50
509.06	792.75
509.19	847.50
509.32	840.25
509.45	825.50
509.57	828.25
509.70	772.75
509.83	806.75
509.96	780.00
510.09	813.50
510.22	808.25
510.34	821.00
510.47	804.25
510.60	913.00
510.73	816.50
510.86	832.75
510.98	790.50
511.11	794.75
511.24	855.75
511.37	838.50
511.50	802.75
511.63	822.75
511.75	816.75
511.88	811.00
512.01	831.25
512.14	815.25
512.27	828.25
512.39	802.00
512.52	802.00
512.65	820.25
512.78	787.00
512.91	813.75
513.03	808.75
513.16	846.75
513.29	821.25
513.42	800.25
513.55	775.50
513.67	822.25
513.80	765.00
513.93	789.25
514.06	797.50
514.19	831.25
514.31	825.00
514.44	844.75
514.57	798.50
514.70	809.00
514.83	863.75
514.95	787.00
515.08	828.50
515.21	835.75
515.34	822.00
515.47	812.25
515.59	786.50
515.72	828.75
515.85	821.25
515.98	858.75
516.11	816.50
516.23	845.50
516.36	877.50
516.49	835.50
516.62	819.75
516.75	874.25
516.87	868.25
517.00	793.50
517.13	838.75
517.26	854.25
517.39	835.00
517.51	764.50
517.64	810.75
517.77	880.75
517.90	778.50
518.02	810.00
518.15	772.25
518.28	734.75
518.41	799.50
518.54	813.75
518.66	825.75
518.79	777.00
518.92	797.50
519.05	785.75
519.18	800.00
519.30	837.50
519.43	769.50
519.56	783.00
519.69	792.50
519.81	853.50
519.94	799.00
520.07	751.50
520.20	794.75
520.33	819.75
520.45	881.25
520.58	830.00
520.71	830.25
520.84	859.25
520.96	828.75
521.09	810.50
521.22	791.75
521.35	850.75
521.48	839.50
521.60	793.25
521.73	819.75
521.86	874.25
521.99	893.75
522.11	832.00
522.24	810.75
522.37	834.50
522.50	829.25
522.62	862.50
522.75	760.25
522.88	822.50
523.01	791.50
523.14	834.25
523.26	834.00
523.39	888.75
523.52	793.25
523.65	892.75
523.77	847.75
523.90	815.00
524.03	796.75
524.16	801.75
524.28	801.50
524.41	805.50
524.54	807.00
524.67	779.50
524.79	798.00
524.92	836.75
525.05	879.75
525.18	773.00
525.31	844.75
525.43	772.75
525.56	922.00
525.69	796.50
525.82	750.00
525.94	852.00
526.07	848.50
526.20	829.75
526.33	850.25
526.45	936.75
526.58	900.50
526.71	827.25
526.84	805.50
526.96	819.75
527.09	783.75
527.22	802.50
527.35	792.00
527.47	763.00
527.60	876.25
527.73	773.50
527.86	841.25
527.98	831.75
528.11	838.50
528.24	773.25
528.37	803.25
528.49	771.00
528.62	807.75
528.75	842.50
528.88	780.50
529.00	847.50
529.13	858.00
529.26	823.50
529.39	840.25
529.51	939.75
529.64	912.25
529.77	786.00
529.90	802.50
530.02	794.00
530.15	787.00
530.28	744.25
530.40	787.25
530.53	809.50
530.66	832.00
530.79	795.75
530.91	811.75
531.04	794.50
531.17	803.50
531.30	808.50
531.42	806.25
531.55	808.75
531.68	863.50
531.81	784.50
531.93	801.50
532.06	828.75
532.19	774.50
532.31	803.25
532.44	797.00
532.57	828.25
532.70	792.75
532.82	821.00
532.95	847.25
533.08	873.75
533.21	833.50
533.33	786.00
533.46	795.50
533.59	800.75
533.71	910.00
533.84	823.00
533.97	798.50
534.10	793.25
534.22	779.50
534.35	805.50
534.48	819.50
534.61	841.50
534.73	750.25
534.86	778.25
534.99	823.50
535.11	857.50
535.24	818.25
535.37	785.75
535.50	765.25
535.62	778.75
535.75	866.50
535.88	815.75
536.00	792.50
536.13	798.50
536.26	803.25
536.39	791.00
536.51	768.75
536.64	824.75
536.77	814.50
536.89	815.50
537.02	817.25
537.15	836.00
537.28	817.25
537.40	821.75
537.53	795.75
537.66	857.25
537.78	820.25
537.91	779.25
538.04	791.25
538.17	853.00
538.29	823.00
538.42	875.25
538.55	869.75
538.67	838.75
538.80	787.50
538.93	824.00
539.05	813.25
539.18	869.00
539.31	833.75
539.44	822.25
539.56	737.00
539.69	801.25
539.82	787.50
539.94	776.25
540.07	784.50
540.20	875.00
540.32	792.25
540.45	803.75
540.58	794.00
540.71	848.75
540.83	760.75
540.96	788.75
541.09	802.25
541.21	880.75
541.34	860.25
541.47	774.75
541.59	813.00
541.72	885.25
541.85	951.75
541.98	858.25
542.10	816.75
542.23	822.25
542.36	935.75
542.48	826.75
542.61	809.25
542.74	780.25
542.86	788.75
542.99	799.00
543.12	783.75
543.24	821.50
543.37	757.25
543.50	801.75
543.62	791.75
543.75	803.00
543.88	798.00
544.01	821.00
544.13	835.75
544.26	830.00
544.39	787.00
544.51	785.75
544.64	776.25
544.77	830.25
544.89	789.00
545.02	815.50
545.15	784.75
545.27	883.00
545.40	854.75
545.53	832.50
545.65	825.75
545.78	738.00
545.91	768.75
546.03	796.00
546.16	803.75
546.29	784.00
546.41	761.00
546.54	798.75
546.67	775.75
546.79	836.25
546.92	876.75
547.05	754.00
547.17	809.00
547.30	776.50
547.43	826.50
547.56	776.75
547.68	801.50
547.81	758.00
547.94	824.50
548.06	791.00
548.19	773.50
548.32	862.75
548.44	813.50
548.57	824.25
548.70	846.25
548.82	850.25
548.95	836.25
549.08	800.25
549.20	795.00
549.33	887.00
549.45	809.50
549.58	802.25
549.71	768.75
549.83	849.00
549.96	768.25
550.09	802.25
550.21	785.00
550.34	814.75
550.47	799.00
550.59	796.50
550.72	732.00
550.85	806.00
550.97	860.75
551.10	786.00
551.23	797.00
551.35	875.75
551.48	816.25
551.61	793.75
551.73	785.75
551.86	864.50
551.99	874.00
552.11	811.00
552.24	842.50
552.37	820.00
552.49	780.50
552.62	781.50
552.75	836.50
552.87	790.75
553.00	782.50
553.12	808.25
553.25	785.50
553.38	832.50
553.50	866.00
553.63	804.00
553.76	747.50
553.88	804.75
554.01	800.00
554.14	802.25
554.26	826.75
554.39	876.75
554.52	801.00
554.64	812.25
554.77	791.75
554.89	836.00
555.02	847.25
555.15	825.50
555.27	809.75
555.40	805.25
555.53	854.00
555.65	800.00
555.78	767.00
555.91	834.50
556.03	864.00
556.16	776.25
556.29	808.50
556.41	868.50
556.54	873.25
556.66	815.50
556.79	789.25
556.92	812.50
557.04	821.00
557.17	790.25
557.30	790.75
557.42	789.50
557.55	798.75
557.67	819.25
557.80	803.00
557.93	809.50
558.05	816.75
558.18	773.75
558.31	808.75
558.43	846.50
558.56	830.00
558.68	801.00
558.81	777.00
558.94	795.50
559.06	915.00
559.19	797.75
559.32	795.00
559.44	760.50
559.57	800.75
559.69	780.00
559.82	773.00
559.95	788.00
560.07	786.75
560.20	731.50
560.33	812.00
560.45	807.75
560.58	751.75
560.70	800.25
560.83	763.00
560.96	771.50
561.08	786.25
561.21	822.25
561.33	775.75
561.46	755.00
561.59	833.75
561.71	787.00
561.84	812.75
561.97	774.50
562.09	832.50
562.22	780.00
562.34	776.75
562.47	835.75
562.60	814.00
562.72	795.00
562.85	803.75
562.97	794.25
563.10	791.50
563.23	775.25
563.35	773.00
563.48	810.25
563.60	793.00
563.73	817.50
563.86	755.50
563.98	780.75
564.11	797.00
564.23	795.00
564.36	864.75
564.49	804.75
564.61	864.75
564.74	812.00
564.86	774.75
564.99	846.75
565.12	830.25
565.24	855.75
565.37	843.00
565.49	839.00
565.62	874.75
565.75	840.25
565.87	774.25
566.00	929.75
566.12	860.25
566.25	808.75
566.38	842.25
566.50	802.25
566.63	842.25
566.75	794.75
566.88	771.25
567.01	760.25
567.13	788.25
567.26	799.75
567.38	778.25
567.51	840.50
567.64	780.50
567.76	822.00
567.89	818.00
568.01	769.50
568.14	762.25
568.26	809.00
568.39	811.75
568.52	798.00
568.64	832.25
568.77	785.75
568.89	772.00
569.02	771.25
569.15	797.25
569.27	792.25
569.40	820.50
569.52	827.00
569.65	775.50
569.77	795.00
569.90	760.25
570.03	758.75
570.15	870.75
570.28	799.50
570.40	795.50
570.53	791.00
570.66	856.75
570.78	839.75
570.91	814.00
571.03	766.75
571.16	803.25
571.28	763.25
571.41	753.50
571.54	743.50
571.66	733.25
571.79	766.25
571.91	773.50
572.04	755.75
572.16	810.00
572.29	828.75
572.42	782.50
572.54	808.25
572.67	762.50
572.79	814.50
572.92	796.50
573.04	822.50
573.17	843.00
573.29	806.25
573.42	783.50
573.55	825.25
573.67	824.25
573.80	792.25
573.92	761.75
574.05	805.50
574.17	847.75
574.30	795.50
574.43	783.50
574.55	779.25
574.68	807.75
574.80	779.00
574.93	785.50
575.05	766.75
575.18	784.00
575.30	779.25
575.43	825.50
575.56	857.50
575.68	821.75
575.81	793.50
575.93	764.75
576.06	821.50
576.18	832.25
576.31	790.00
576.43	784.75
576.56	894.25
576.69	854.00
576.81	802.75
576.94	781.50
577.06	798.25
577.19	829.25
577.31	799.25
577.44	816.25
577.56	842.50
577.69	812.75
577.82	817.00
577.94	776.25
578.07	742.25
578.19	818.25
578.32	833.25
578.44	776.75
578.57	786.50
578.69	843.00
578.82	812.75
578.94	822.50
579.07	839.75
579.19	834.50
579.32	810.50
579.45	814.75
579.57	793.75
579.70	767.25
579.82	810.25
579.95	790.75
580.07	859.75
580.20	800.00
580.32	802.50
580.45	832.25
580.57	827.25
580.70	825.00
580.82	829.00
580.95	830.00
581.08	761.25
581.20	849.00
581.33	790.25
581.45	818.50
581.58	803.75
581.70	819.75
581.83	722.25
581.95	817.00
582.08	829.00
582.20	787.75
582.33	804.25
582.45	780.75
582.58	790.25
582.70	808.25
582.83	782.00
582.95	793.25
583.08	842.75
583.21	844.75
583.33	815.50
583.46	778.25
583.58	757.00
583.71	833.25
583.83	821.25
583.96	819.00
584.08	826.75
584.21	830.25
584.33	830.00
584.46	795.75
584.58	761.50
584.71	831.75
584.83	822.25
584.96	804.25
585.08	772.50
585.21	888.00
585.33	859.75
585.46	832.75
585.58	833.75
585.71	786.50
585.83	807.25
585.96	840.75
586.08	823.75
586.21	814.25
586.33	842.25
586.46	771.75
586.59	837.25
586.71	781.25
586.84	829.50
586.96	810.25
587.09	754.00
587.21	780.25
587.34	843.75
587.46	798.75
587.59	761.25
587.71	794.50
587.84	784.50
587.96	755.75
588.09	764.25
588.21	819.25
588.34	797.50
588.46	818.00
588.59	781.50
588.71	817.50
588.84	812.00
588.96	797.50
589.09	888.75
589.21	808.75
589.34	773.50
589.46	801.25
589.59	805.25
589.71	849.00
589.84	757.25
589.96	775.25
590.09	795.00
590.21	827.00
590.34	808.00
590.46	806.75
590.59	774.25
590.71	787.75
590.84	835.50
590.96	766.50
591.09	817.50
591.21	807.50
591.34	791.75
591.46	799.25
591.59	851.50
591.71	824.50
591.83	797.25
591.96	751.25
592.08	794.00
592.21	832.50
592.33	808.25
592.46	790.25
592.58	811.75
592.71	841.00
592.83	901.50
592.96	837.50
593.08	849.25
593.21	763.25
593.33	760.50
593.46	795.75
593.58	795.00
593.71	838.00
593.83	852.00
593.96	779.25
594.08	912.75
594.21	800.00
594.33	792.00
594.46	769.50
594.58	756.50
594.71	742.50
594.83	818.00
594.96	803.00
595.08	961.00
595.20	838.25
595.33	824.25
595.45	777.50
595.58	882.50
595.70	821.50
595.83	798.25
595.95	799.25
596.08	818.75
596.20	761.75
596.33	751.25
596.45	799.50
596.58	770.25
596.70	761.25
596.83	786.50
596.95	783.75
597.08	805.75
597.20	762.75
597.32	780.00
597.45	817.00
597.57	791.25
597.70	833.50
597.82	793.75
597.95	808.50
598.07	803.50
598.20	808.75
598.32	800.25
598.45	787.75
598.57	841.25
598.70	858.00
598.82	793.00
598.94	792.75
599.07	842.25
599.19	798.50
599.32	783.00
599.44	716.50
599.57	837.00
599.69	820.25
599.82	793.25
599.94	765.75
600.07	842.00
600.19	818.75
600.31	776.50
600.44	829.75
600.56	908.00
600.69	890.00
600.81	794.50
600.94	794.25
601.06	803.50
601.19	827.25
601.31	838.25
601.44	763.00
601.56	848.25
601.68	835.00
601.81	808.75
601.93	809.50
602.06	825.25
602.18	768.50
602.31	797.50
602.43	861.75
602.56	836.00
602.68	807.00
602.80	804.75
602.93	811.75
603.05	776.25
603.18	805.75
603.30	772.75
603.43	769.25
603.55	796.25
603.68	824.25
603.80	823.75
603.92	811.00
604.05	778.25
604.17	786.00
604.30	761.00
604.42	792.75
604.55	788.25
604.67	829.75
604.79	778.75
604.92	789.25
605.04	778.75
605.17	781.00
605.29	781.75
605.42	766.50
605.54	858.00
605.66	810.75
605.79	817.50
605.91	789.25
606.04	801.50
606.16	780.00
606.29	819.75
606.41	769.00
606.53	792.75
606.66	752.00
606.78	796.00
606.91	790.50
607.03	779.00
607.16	781.00
607.28	769.75
607.40	809.75
607.53	823.50
607.65	770.75
607.78	772.50
607.90	806.50
608.03	903.50
608.15	813.25
608.27	816.25
608.40	755.00
608.52	816.50
608.65	809.25
608.77	838.75
608.89	797.25
609.02	865.25
609.14	877.00
609.27	829.50
609.39	842.75
609.52	782.25
609.64	738.25
609.76	778.00
609.89	789.00
610.01	853.25
610.14	836.75
610.26	791.25
610.38	763.75
610.51	831.00
610.63	786.75
610.76	767.00
610.88	822.00
611.01	852.50
611.13	887.00
611.25	834.50
611.38	770.00
611.50	795.25
611.63	822.50
611.75	800.25
611.87	807.75
612.00	788.75
612.12	836.75
612.25	788.25
612.37	777.75
612.49	865.50
612.62	841.50
612.74	869.25
612.87	809.25
612.99	805.75
613.11	744.00
613.24	786.75
613.36	793.75
613.49	803.50
613.61	804.75
613.73	787.25
613.86	840.25
613.98	779.50
614.11	833.25
614.23	835.00
614.35	853.25
614.48	843.75
614.60	816.25
614.72	788.00
614.85	815.50
614.97	809.25
615.10	799.25
615.22	789.50
615.34	809.50
615.47	848.75
615.59	775.50
615.72	802.50
615.84	819.50
615.96	776.25
616.09	887.00
616.21	792.00
616.34	785.25
616.46	787.25
616.58	835.25
616.71	830.25
616.83	841.50
616.95	823.00
617.08	825.75
617.20	801.00
617.33	759.50
617.45	796.25
617.57	824.00
617.70	814.00
617.82	786.25
617.95	807.50
618.07	870.50
618.19	825.75
618.32	814.50
618.44	792.00
618.56	762.75
618.69	744.00
618.81	742.75
618.94	829.50
619.06	800.25
619.18	797.50
619.31	760.50
619.43	762.75
619.55	818.50
619.68	816.50
619.80	765.75
619.92	815.00
620.05	911.25
620.17	854.00
620.30	797.00
620.42	825.75
620.54	842.50
620.67	786.25
620.79	808.75
620.91	828.50
621.04	860.50
621.16	787.50
621.29	774.50
621.41	749.50
621.53	783.25
621.66	795.75
621.78	790.25
621.90	842.00
622.03	895.50
622.15	812.25
622.27	800.50
622.40	809.50
622.52	785.75
622.64	780.25
622.77	755.50
622.89	811.00
623.02	840.50
623.14	823.75
623.26	825.00
623.39	821.00
623.51	852.50
623.63	796.00
623.76	772.25
623.88	851.00
624.00	807.50
624.13	775.00
624.25	772.50
624.37	760.25
624.50	839.00
624.62	825.00
624.75	768.25
624.87	769.00
624.99	816.50
625.12	783.00
625.24	788.75
625.36	869.00
625.49	826.75
625.61	819.50
625.73	813.00
625.86	839.50
625.98	797.00
626.10	773.75
626.23	761.00
626.35	812.75
626.47	780.00
626.60	763.00
626.72	778.00
626.84	774.75
626.97	809.75
627.09	800.00
627.21	786.25
627.34	900.50
627.46	895.25
627.58	802.25
627.71	818.75
627.83	836.50
627.95	766.50
628.08	803.50
628.20	837.00
628.32	741.50
628.45	728.00
628.57	743.00
628.69	780.75
628.82	813.25
628.94	845.50
629.06	795.50
629.19	789.00
629.31	841.25
629.43	766.75
629.56	814.50
629.68	798.75
629.80	837.50
629.93	760.50
630.05	768.00
630.17	764.00
630.30	783.25
630.42	771.75
630.54	822.50
630.67	803.00
630.79	774.75
630.91	920.25
631.04	824.50
631.16	805.25
631.28	804.25
631.41	769.00
631.53	753.50
631.65	808.00
631.78	831.25
631.90	792.25
632.02	803.25
632.14	731.75
632.27	855.25
632.39	793.00
632.51	783.50
632.64	846.75
632.76	799.25
632.88	777.25
633.01	801.75
633.13	794.75
633.25	808.25
633.38	896.75
633.50	752.75
633.62	751.75
633.75	747.00
633.87	735.00
633.99	814.00
634.11	761.00
634.24	786.25
634.36	788.75
634.48	783.25
634.61	785.75
634.73	824.25
634.85	772.00
634.98	766.50
635.10	776.00
635.22	792.25
635.35	908.50
635.47	815.25
635.59	787.00
635.71	817.25
635.84	844.00
635.96	787.00
636.08	837.75
636.21	773.50
636.33	802.00
636.45	797.50
636.58	780.25
636.70	744.25
636.82	816.75
636.94	775.75
637.07	741.25
637.19	825.25
637.31	822.50
637.44	822.75
637.56	749.25
637.68	816.00
637.81	807.50
637.93	799.00
638.05	759.00
638.17	840.00
638.30	904.25
638.42	800.75
638.54	773.00
638.67	783.00
638.79	795.00
638.91	766.50
639.03	794.00
639.16	785.25
639.28	786.75
639.40	802.00
639.53	776.50
639.65	827.25
639.77	787.75
639.89	800.50
640.02	794.50
640.14	806.50
640.26	756.75
640.39	818.00
640.51	771.50
640.63	817.25
640.75	840.00
640.88	796.75
641.00	773.50
641.12	770.75
641.24	861.75
641.37	776.75
641.49	762.75
641.61	889.75
641.74	778.75
641.86	811.75
641.98	760.25
642.10	807.75
642.23	813.00
642.35	789.75
642.47	820.00
642.60	805.50
642.72	822.25
642.84	742.50
642.96	759.25
643.09	760.25
643.21	756.50
643.33	761.50
643.45	770.00
643.58	834.00
643.70	868.25
643.82	779.50
643.94	776.75
644.07	803.00
644.19	813.50
644.31	806.25
644.44	802.00
644.56	783.00
644.68	764.00
644.80	764.50
644.93	763.75
645.05	759.00
645.17	801.75
645.29	794.25
645.42	806.00
645.54	798.75
645.66	819.50
645.78	786.50
645.91	767.75
646.03	818.25
646.15	855.00
646.27	780.50
646.40	810.25
646.52	823.00
646.64	845.00
646.76	786.25
646.89	739.50
647.01	829.25
647.13	819.00
647.25	824.25
647.38	777.75
647.50	754.25
647.62	821.25
647.74	739.75
647.87	752.75
647.99	805.25
648.11	823.00
648.23	792.25
648.36	740.00
648.48	844.25
648.60	798.00
648.72	767.00
648.85	756.75
648.97	837.50
649.09	807.25
649.21	775.25
649.34	811.00
649.46	815.75
649.58	800.75
649.70	810.00
649.83	772.75
649.95	833.75
650.07	831.25
650.19	830.00
650.32	803.25
650.44	847.00
650.56	814.75
650.68	781.50
650.81	783.75
650.93	777.25
651.05	844.50
651.17	766.25
651.29	818.50
651.42	792.50
651.54	817.50
651.66	766.25
651.78	766.25
651.91	808.75
652.03	901.25
652.15	817.50
652.27	765.75
652.40	797.75
652.52	786.50
652.64	804.75
652.76	774.50
652.88	881.00
653.01	800.50
653.13	756.50
653.25	731.50
653.37	818.25
653.50	834.00
653.62	819.50
653.74	746.25
653.86	827.00
653.98	825.25
654.11	769.50
654.23	782.00
654.35	776.75
654.47	902.00
654.60	786.25
654.72	794.25
654.84	757.75
654.96	840.25
655.08	784.25
655.21	813.00
655.33	778.00
655.45	843.25
655.57	806.00
655.70	799.50
655.82	841.75
655.94	867.25
656.06	826.00
656.18	758.50
656.31	841.75
656.43	816.00
656.55	766.75
656.67	784.00
656.79	788.75
656.92	848.50
657.04	824.25
657.16	783.00
657.28	915.50
657.40	818.00
657.53	835.00
657.65	784.25
657.77	842.00
657.89	845.50
658.01	787.00
658.14	754.75
658.26	821.00
658.38	773.00
658.50	758.75
658.62	755.75
658.75	917.75
658.87	833.75
658.99	823.25
659.11	765.00
659.23	835.25
659.36	876.75
659.48	834.75
659.60	817.50
659.72	805.25
659.84	798.50
659.97	821.50
660.09	831.50
660.21	918.50
660.33	844.00
660.45	749.25
660.58	722.50
660.70	776.00
660.82	775.75
660.94	751.25
661.06	789.50
661.19	847.75
661.31	831.00
661.43	794.50
661.55	789.00
661.67	835.25
661.80	853.75
661.92	795.00
662.04	809.75
662.16	797.50
662.28	863.75
662.40	797.75
662.53	801.25
662.65	814.75
662.77	769.50
662.89	809.50
663.01	769.75
663.14	793.50
663.26	814.75
663.38	789.25
663.50	756.25
663.62	779.50
663.74	797.25
663.87	783.00
663.99	804.00
664.11	808.25
664.23	902.00
664.35	789.25
664.48	776.00
664.60	781.75
664.72	775.00
664.84	747.00
664.96	783.25
665.08	846.25
665.21	813.00
665.33	826.25
665.45	739.75
665.57	791.50
665.69	870.50
665.81	788.75
665.94	759.50
666.06	768.25
666.18	818.00
666.30	784.25
666.42	768.00
666.54	810.50
666.67	823.75
666.79	764.00
666.91	823.50
667.03	781.50
667.15	752.25
667.27	784.50
667.40	763.25
667.52	778.25
667.64	834.75
667.76	782.75
667.88	758.00
668.00	823.50
668.13	832.25
668.25	754.00
668.37	760.75
668.49	777.25
668.61	836.00
668.73	792.00
668.85	806.25
668.98	817.75
669.10	807.50
669.22	779.50
669.34	790.00
669.46	830.00
669.58	784.00
669.71	803.00
669.83	788.75
669.95	781.25
670.07	797.75
670.19	781.50
670.31	791.25
670.43	782.00
670.56	812.50
670.68	842.75
670.80	807.50
670.92	810.50
671.04	864.75
671.16	783.00
671.28	775.25
671.41	777.75
671.53	819.00
671.65	780.50
671.77	786.75
671.89	938.00
672.01	879.00
672.13	830.00
672.26	759.00
672.38	808.50
672.50	768.00
672.62	785.75
672.74	813.25
672.86	794.50
672.98	803.50
673.11	797.50
673.23	803.25
673.35	850.75
673.47	786.75
673.59	798.75
673.71	758.50
673.83	824.00
673.96	913.75
674.08	799.50
674.20	753.75
674.32	789.75
674.44	797.25
674.56	823.25
674.68	808.75
674.80	823.00
674.93	796.00
675.05	783.75
675.17	804.50
675.29	830.75
675.41	834.00
675.53	786.75
675.65	790.25
675.77	797.25
675.90	843.75
676.02	776.50
676.14	758.75
676.26	863.25
676.38	896.00
676.50	810.00
676.62	822.25
676.74	763.00
676.87	781.75
676.99	809.50
677.11	824.25
677.23	807.50
677.35	819.50
677.47	747.00
677.59	774.75
677.71	816.00
677.83	829.25
677.96	803.00
678.08	805.00
678.20	796.00
678.32	769.50
678.44	789.50
678.56	792.25
678.68	919.75
678.80	832.25
678.93	801.50
679.05	808.00
679.17	801.25
679.29	843.00
679.41	801.50
679.53	775.75
679.65	768.00
679.77	810.75
679.89	792.00
680.01	828.00
680.14	832.25
680.26	741.25
680.38	784.00
680.50	820.00
680.62	880.25
680.74	820.50
680.86	791.00
680.98	804.25
681.10	823.50
681.22	885.75
681.35	782.25
681.47	786.00
681.59	769.75
681.71	872.00
681.83	801.25
681.95	777.25
682.07	846.00
682.19	816.25
682.31	783.50
682.43	757.50
682.56	827.25
682.68	752.50
682.80	757.75
682.92	818.25
683.04	801.50
683.16	794.25
683.28	775.75
683.40	830.50
683.52	798.75
683.64	818.75
683.76	768.00
683.89	780.50
684.01	796.75
684.13	846.75
684.25	801.75
684.37	803.50
684.49	829.00
684.61	790.75
684.73	797.25
684.85	786.75
684.97	765.00
685.09	860.75
685.21	771.75
685.34	795.25
685.46	915.75
685.58	820.00
685.70	811.50
685.82	841.50
685.94	769.75
686.06	771.00
686.18	757.75
686.30	784.75
686.42	758.25
686.54	830.50
686.66	761.50
686.79	863.25
686.91	806.25
687.03	907.00
687.15	826.50
687.27	788.75
687.39	793.00
687.51	865.25
687.63	802.75
687.75	852.50
687.87	826.75
687.99	870.50
688.11	764.75
688.23	819.50
688.35	843.75
688.48	820.25
688.60	762.75
688.72	793.25
688.84	811.00
688.96	825.50
689.08	796.00
689.20	794.50
689.32	917.25
689.44	813.25
689.56	755.25
689.68	776.25
689.80	784.00
689.92	774.75
690.04	780.75
690.16	830.50
690.28	819.00
690.41	812.00
690.53	770.25
690.65	842.75
690.77	848.75
690.89	845.25
691.01	800.25
691.13	785.75
691.25	756.75
691.37	803.25
691.49	746.25
691.61	744.25
691.73	868.75
691.85	798.25
691.97	786.25
692.09	767.00
692.21	849.25
692.33	868.75
692.45	814.50
692.57	779.75
692.70	806.75
692.82	821.00
692.94	746.50
693.06	768.50
693.18	801.75
693.30	789.00
693.42	769.25
693.54	807.50
693.66	810.25
693.78	817.75
693.90	779.75
694.02	798.25
694.14	822.50
694.26	781.00
694.38	807.00
694.50	810.50
694.62	818.25
694.74	760.25
694.86	761.75
694.98	804.75
695.10	819.25
695.22	847.75
695.34	782.50
695.46	774.50
695.58	783.25
695.71	813.50
695.83	773.25
695.95	782.50
696.07	853.00
696.19	764.25
696.31	784.50
696.43	764.25
696.55	875.25
696.67	812.00
696.79	782.50
696.91	799.25
697.03	781.00
697.15	877.25
697.27	809.50
697.39	779.50
697.51	836.75
697.63	768.25
697.75	774.00
697.87	803.00
697.99	746.50
698.11	730.00
698.23	762.50
698.35	785.00
698.47	783.25
698.59	808.75
698.71	781.25
698.83	841.25
698.95	768.50
699.07	799.50
699.19	777.50
699.31	797.75
699.43	769.75
699.55	826.75
699.67	784.75
699.79	788.00
699.91	776.75
700.03	806.75
700.15	807.50
700.27	766.00
700.39	793.50
700.51	758.25
700.63	792.25
700.75	785.00
700.87	801.75
700.99	774.25
701.11	821.50
701.24	795.25
701.36	830.50
701.48	838.75
701.60	825.50
701.72	762.25
701.84	852.50
701.96	813.00
702.08	801.25
702.20	878.75
702.32	829.75
702.44	826.50
702.56	793.75
702.68	792.00
702.80	800.00
702.92	878.50
703.04	872.00
703.16	810.50
703.28	812.00
703.40	790.50
703.52	810.00
703.64	820.00
703.76	807.25
703.88	789.00
704.00	776.00
704.12	792.25
704.24	850.00
704.36	805.25
704.48	816.50
704.60	757.75
704.72	782.25
704.84	784.50
704.96	826.50
705.07	810.25
705.19	766.00
705.31	783.50
705.43	829.00
705.55	774.50
705.67	815.75
705.79	798.50
705.91	733.00
706.03	779.25
706.15	804.00
706.27	782.50
706.39	780.25
706.51	775.75
706.63	779.50
706.75	827.50
706.87	818.75
706.99	864.50
707.11	802.00
707.23	775.75
707.35	817.50
707.47	802.25
707.59	830.00
707.71	840.25
707.83	790.75
707.95	833.75
708.07	781.50
708.19	919.50
708.31	822.50
708.43	765.75
708.55	813.75
708.67	853.00
708.79	810.25
708.91	841.00
709.03	808.25
709.15	844.50
709.27	775.50
709.39	806.75
709.51	791.00
709.63	820.50
709.75	813.50
709.87	765.00
709.99	827.75
710.11	778.50
710.23	773.50
710.35	759.75
710.47	899.25
710.58	851.50
710.70	847.50
710.82	856.75
710.94	803.25
711.06	793.25
711.18	810.00
711.30	780.00
711.42	831.75
711.54	791.25
711.66	819.25
711.78	774.75
711.90	819.75
712.02	870.00
712.14	775.25
712.26	757.00
712.38	854.00
712.50	859.00
712.62	788.50
712.74	771.25
712.86	778.75
712.98	845.25
713.10	773.75
713.22	765.75
713.34	803.00
713.45	780.25
713.57	818.50
713.69	769.75
713.81	783.25
713.93	800.75
714.05	789.50
714.17	746.00
714.29	854.75
714.41	843.50
714.53	789.25
714.65	820.75
714.77	802.75
714.89	762.00
715.01	846.00
715.13	773.50
715.25	813.00
715.37	764.25
715.49	745.25
715.61	821.50
715.72	820.50
715.84	849.25
715.96	793.75
716.08	790.50
716.20	866.00
716.32	834.25
716.44	791.75
716.56	793.00
716.68	808.75
716.80	878.50
716.92	854.25
717.04	813.50
717.16	827.50
717.28	802.00
717.40	789.75
717.52	801.75
717.63	774.75
717.75	808.25
717.87	807.50
717.99	822.50
718.11	791.00
718.23	856.75
718.35	827.00
718.47	803.25
718.59	747.00
718.71	800.00
718.83	780.50
718.95	826.50
719.07	764.75
719.19	793.25
719.30	796.25
719.42	811.50
719.54	792.00
719.66	806.50
719.78	807.50
719.90	742.25
720.02	796.75
720.14	817.25
720.26	831.50
720.38	815.25
720.50	784.00
720.62	730.00
720.74	797.50
720.85	803.75
720.97	858.75
721.09	905.25
721.21	803.25
721.33	867.25
721.45	814.50
721.57	818.00
721.69	773.50
721.81	754.75
721.93	853.00
722.05	804.75
722.16	767.75
722.28	744.75
722.40	783.00
722.52	856.75
722.64	865.75
722.76	769.25
722.88	822.25
723.00	817.25
723.12	777.50
723.24	810.25
723.36	749.75
723.47	839.00
723.59	813.25
723.71	793.25
723.83	824.00
723.95	792.25
724.07	797.00
724.19	826.50
724.31	879.50
724.43	778.00
724.55	732.25
724.66	771.75
724.78	937.75
724.90	769.00
725.02	771.50
725.14	783.00
725.26	805.25
725.38	739.00
725.50	802.25
725.62	810.00
725.74	796.75
725.85	788.00
725.97	807.50
726.09	864.25
726.21	1142.25
726.33	831.50
726.45	793.75
726.57	772.50
726.69	804.75
726.81	803.50
726.92	800.00
727.04	813.00
727.16	819.50
727.28	789.00
727.40	785.50
727.52	807.75
727.64	913.25
727.76	881.50
727.88	828.75
727.99	761.50
728.11	768.50
728.23	799.25
728.35	785.00
728.47	786.25
728.59	787.25
728.71	800.25
728.83	805.00
728.94	829.50
729.06	896.00
729.18	857.25
729.30	832.75
729.42	811.00
729.54	876.75
729.66	877.00
729.78	805.25
729.90	809.25
730.01	785.75
730.13	731.50
730.25	787.75
730.37	793.75
730.49	819.75
730.61	825.25
730.73	822.00
730.84	837.25
730.96	818.00
731.08	817.00
731.20	809.50
731.32	815.25
731.44	954.00
731.56	799.00
731.68	774.00
731.79	814.25
731.91	773.50
732.03	788.75
732.15	797.75
732.27	769.00
732.39	782.75
732.51	832.25
732.62	780.25
732.74	792.00
732.86	850.75
732.98	818.25
733.10	799.50
733.22	809.00
733.34	832.25
733.45	754.25
733.57	802.25
733.69	758.00
733.81	783.00
733.93	811.00
734.05	740.25
734.17	794.50
734.28	799.00
734.40	795.50
734.52	783.75
734.64	793.25
734.76	876.75
734.88	811.75
735.00	764.25
735.11	805.00
735.23	847.50
735.35	790.00
735.47	742.75
735.59	832.00
735.71	797.50
735.83	813.25
735.94	824.50
736.06	800.75
736.18	861.25
736.30	842.75
736.42	822.00
736.54	821.50
736.65	830.50
736.77	956.00
736.89	858.50
737.01	812.75
737.13	908.00
737.25	737.75
737.36	765.75
737.48	789.50
737.60	800.75
737.72	780.50
737.84	798.50
737.96	846.00
738.08	796.50
738.19	892.25
738.31	788.75
738.43	807.75
738.55	803.50
738.67	806.50
738.79	782.00
738.90	806.75
739.02	817.25
739.14	788.50
739.26	806.50
739.38	803.75
739.50	808.75
739.61	802.75
739.73	802.00
739.85	811.75
739.97	817.50
740.09	867.50
740.20	762.75
740.32	808.75
740.44	827.00
740.56	762.75
740.68	806.75
740.80	803.50
740.91	799.75
741.03	849.50
741.15	840.75
741.27	801.25
741.39	837.00
741.51	808.75
741.62	847.75
741.74	804.00
741.86	804.00
741.98	787.50
742.10	812.25
742.21	814.75
742.33	809.75
742.45	772.00
742.57	854.50
742.69	804.75
742.80	832.75
742.92	791.25
743.04	796.25
743.16	791.75
743.28	852.00
743.40	760.00
743.51	783.00
743.63	774.75
743.75	810.25
743.87	801.75
743.99	821.75
744.10	810.00
744.22	802.75
744.34	779.25
744.46	824.75
744.58	821.75
744.69	745.00
744.81	809.00
744.93	763.00
745.05	772.75
745.17	871.50
745.28	879.50
745.40	833.25
745.52	808.25
745.64	814.75
745.76	845.25
745.87	785.00
745.99	777.75
746.11	813.50
746.23	777.25
746.35	795.50
746.46	775.25
746.58	903.25
746.70	821.25
746.82	813.75
746.94	798.75
747.05	770.00
747.17	753.00
747.29	742.25
747.41	791.25
747.53	925.50
747.64	786.75
747.76	847.75
747.88	855.00
748.00	847.25
748.12	818.00
748.23	802.25
748.35	822.00
748.47	845.25
748.59	855.25
748.70	778.00
748.82	767.00
748.94	773.00
749.06	786.50
749.18	794.75
749.29	782.50
749.41	815.00
749.53	802.50
749.65	790.25
749.76	832.75
749.88	797.00
750.00	815.50
750.12	841.50
750.24	811.00
750.35	802.50
750.47	768.25
750.59	834.75
750.71	805.00
750.82	843.00
750.94	770.50
751.06	792.25
751.18	778.25
751.30	837.25
751.41	842.75
751.53	844.50
751.65	783.50
751.77	789.00
751.88	812.00
752.00	848.75
752.12	760.75
752.24	858.25
752.35	834.00
752.47	838.75
752.59	852.25
752.71	883.00
752.83	789.00
752.94	871.00
753.06	785.00
753.18	808.25
753.30	777.00
753.41	744.00
753.53	786.75
753.65	788.50
753.77	850.00
753.88	778.75
754.00	811.00
754.12	807.25
754.24	866.50
754.35	778.50
754.47	753.50
754.59	827.25
754.71	831.75
754.82	802.75
754.94	789.00
755.06	859.50
755.18	824.25
755.29	812.00
755.41	795.25
755.53	835.00
755.65	781.00
755.76	818.50
755.88	807.00
756.00	869.50
756.12	792.25
756.23	719.25
756.35	780.50
756.47	849.50
756.59	789.25
756.70	782.75
756.82	794.00
756.94	787.25
757.06	816.25
757.17	815.25
757.29	795.50
757.41	754.75
757.53	818.50
757.64	806.00
757.76	803.25
757.88	822.50
758.00	828.25
758.11	798.25
758.23	764.00
758.35	816.75
758.47	763.75
758.58	824.25
758.70	770.25
758.82	789.75
758.94	769.25
759.05	816.50
759.17	759.75
759.29	791.00
759.40	864.25
759.52	790.50
759.64	793.75
759.76	819.00
759.87	832.75
759.99	829.75
760.11	786.50
760.23	809.50
760.34	839.00
760.46	822.00
760.58	790.50
760.70	802.50
760.81	848.75
760.93	816.75
761.05	835.75
761.16	813.75
761.28	795.50
761.40	788.00
761.52	773.25
761.63	852.75
761.75	830.00
761.87	792.25
761.98	754.25
762.10	827.00
762.22	809.75
762.34	837.00
762.45	786.25
762.57	836.25
762.69	919.50
762.81	796.25
762.92	832.25
763.04	766.50
763.16	830.50
763.27	842.00
763.39	794.50
763.51	832.00
763.63	824.25
763.74	781.50
763.86	761.00
763.98	772.25
764.09	792.75
764.21	824.50
764.33	770.75
764.44	785.50
764.56	816.50
764.68	780.75
764.80	810.75
764.91	751.50
765.03	863.75
765.15	807.00
765.26	796.50
765.38	773.25
765.50	834.75
765.62	805.75
765.73	797.25
765.85	816.50
765.97	767.25
766.08	806.75
766.20	815.50
766.32	823.50
766.43	839.00
766.55	832.50
766.67	801.75
766.79	803.75
766.90	776.00
767.02	746.00
767.14	766.00
767.25	765.25
767.37	894.25
767.49	830.75
767.60	801.75
767.72	860.75
767.84	835.50
767.95	792.00
768.07	775.00
768.19	828.00
768.31	831.50
768.42	818.25
768.54	799.25
768.66	802.00
768.77	836.25
768.89	800.00
769.01	780.00
769.12	830.75
769.24	819.25
769.36	762.75
769.47	765.00
769.59	763.75
769.71	823.75
769.82	798.75
769.94	780.75
770.06	759.50
770.17	844.50
770.29	807.75
770.41	842.00
770.53	820.00
770.64	766.00
770.76	809.50
770.88	834.00
770.99	839.00
771.11	781.25
771.23	821.25
771.34	815.00
771.46	896.50
771.58	871.00
771.69	834.25
771.81	809.00
771.93	846.75
772.04	776.00
772.16	835.75
772.28	813.00
772.39	855.00
772.51	805.50
772.63	833.25
772.74	800.75
772.86	798.00
772.98	909.75
773.09	776.75
773.21	789.00
773.33	825.50
773.44	832.00
773.56	801.25
773.68	800.50
773.79	850.50
773.91	789.75
774.03	808.00
774.14	799.25
774.26	861.50
774.38	781.50
774.49	760.75
774.61	801.75
774.73	805.50
774.84	794.00
774.96	777.50
775.08	808.75
775.19	819.00
775.31	859.00
775.43	818.75
775.54	789.50
775.66	756.25
775.77	854.25
775.89	779.25
776.01	837.75
776.12	851.75
776.24	822.25
776.36	764.00
776.47	780.75
776.59	820.25
776.71	853.25
776.82	743.75
776.94	761.00
777.06	792.75
777.17	869.25
777.29	773.50
777.41	781.25
777.52	827.25
777.64	821.25
777.75	834.75
777.87	757.25
777.99	796.75
778.10	852.25
778.22	800.50
778.34	821.00
778.45	793.75
778.57	852.00
778.69	840.75
778.80	824.00
778.92	900.25
779.04	830.75
779.15	806.75
779.27	849.50
779.38	834.00
779.50	865.75
779.62	762.75
779.73	807.75
779.85	751.50
779.97	917.75
780.08	815.75
780.20	810.50
780.31	833.25
780.43	842.50
780.55	791.50
780.66	815.75
780.78	825.75
780.90	904.50
781.01	786.75
781.13	803.50
781.25	799.25
781.36	853.75
781.48	783.50
781.59	800.50
781.71	835.25
781.83	833.50
781.94	783.50
782.06	791.25
782.18	852.50
782.29	803.25
782.41	762.25
782.52	853.50
782.64	857.00
782.76	833.75
782.87	833.50
782.99	803.50
783.10	928.75
783.22	937.50
783.34	810.00
783.45	818.25
783.57	810.75
783.69	793.75
783.80	824.25
783.92	843.00
784.03	807.00
784.15	785.00
784.27	802.25
784.38	777.75
784.50	818.00
784.61	818.25
784.73	792.00
784.85	796.75
784.96	792.75
785.08	852.25
785.19	858.75
785.31	798.50
785.43	777.50
785.54	772.75
785.66	842.25
785.77	822.75
785.89	835.25
786.01	768.00
786.12	807.25
786.24	814.50
786.35	881.50
786.47	822.50
786.59	785.50
786.70	773.50
786.82	818.50
786.93	832.00
787.05	808.25
787.17	830.00
787.28	803.75
787.40	822.75
787.51	831.75
787.63	831.50
787.75	768.75
787.86	822.25
787.98	848.25
788.09	809.00
788.21	828.00
788.33	835.50
788.44	827.75
788.56	782.50
788.67	831.75
788.79	797.50
788.91	812.50
789.02	791.75
789.14	801.25
789.25	894.25
789.37	843.75
789.48	792.75
789.60	820.75
789.72	782.25
789.83	837.75
789.95	821.25
790.06	761.75
790.18	782.25
790.30	842.50
790.41	821.50
790.53	792.25
790.64	768.75
790.76	776.00
790.87	802.75
790.99	815.00
791.11	817.50
791.22	786.75
791.34	811.50
791.45	845.25
791.57	844.25
791.68	802.75
791.80	795.00
791.92	843.25
792.03	793.50
792.15	771.25
792.26	789.75
792.38	759.00
792.49	826.75
792.61	805.25
792.73	821.00
792.84	812.50
792.96	906.25
793.07	803.00
793.19	1566.75
793.30	886.75
793.42	852.50
793.54	750.00
793.65	771.00
793.77	932.50
793.88	798.75
794.00	761.00
794.11	815.00
794.23	753.50
794.34	820.75
794.46	751.75
794.58	767.50
794.69	893.00
794.81	884.00
794.92	778.25
795.04	775.25
795.15	885.50
795.27	835.75
795.39	809.50
795.50	778.75
795.62	783.50
795.73	788.00
795.85	784.75
795.96	832.75
796.08	867.00
796.19	792.75
796.31	796.25
796.42	768.25
796.54	791.75
796.66	849.00
796.77	772.50
796.89	761.25
797.00	844.75
797.12	739.00
797.23	800.50
797.35	819.25
797.46	839.75
797.58	852.75
797.69	817.00
797.81	796.00
797.93	795.75
798.04	779.25
798.16	781.75
798.27	824.25
798.39	780.00
798.50	768.00
798.62	759.75
798.73	764.50
798.85	885.75
798.96	818.00
799.08	830.25
799.19	841.50
799.31	811.25
799.43	808.50
799.54	785.50
799.66	818.50
799.77	835.75
799.89	777.50
800.00	747.50
800.12	792.25
800.23	850.50
800.35	884.50
800.46	747.00
800.58	736.00
800.69	801.50
800.81	792.00
800.92	761.75
801.04	805.00
801.16	741.75
801.27	754.75
801.39	767.75
801.50	785.50
801.62	789.00
801.73	839.00
801.85	842.50
801.96	765.50
802.08	856.00
802.19	852.75
802.31	790.25
802.42	807.00
802.54	879.25
802.65	851.50
802.77	772.50
802.88	840.25
803.00	761.25
803.11	897.00
803.23	812.75
803.34	811.00
803.46	820.25
803.57	765.25
803.69	843.00
803.80	775.25
803.92	846.00
804.03	790.75
804.15	818.00
804.26	828.50
804.38	838.00
804.50	771.00
804.61	815.25
804.73	813.50
804.84	809.00
804.96	743.00
805.07	800.50
805.19	771.00
805.30	820.50
805.42	841.50
805.53	801.75
805.65	775.50
805.76	757.00
805.88	783.25
805.99	820.75
806.11	833.75
806.22	775.00
806.34	795.75
806.45	809.50
806.57	791.25
806.68	837.50
806.80	735.25
806.91	769.00
807.03	761.00
807.14	734.00
807.26	746.50
807.37	762.25
807.49	812.50
807.60	781.75
807.72	862.75
807.83	874.75
807.95	807.00
808.06	824.25
808.17	818.00
808.29	840.75
808.40	772.25
808.52	810.00
808.63	812.50
808.75	814.50
808.86	810.00
808.98	823.50
809.09	775.25
809.21	816.50
809.32	782.00
809.44	833.00
809.55	766.00
809.67	811.00
809.78	765.50
809.90	833.75
810.01	864.50
810.13	784.00
810.24	832.75
810.36	755.25
810.47	778.50
810.59	812.50
810.70	833.00
810.82	849.50
810.93	765.00
811.05	774.00
811.16	786.25
811.27	777.75
811.39	808.50
811.50	845.00
811.62	764.25
811.73	738.25
811.85	815.50
811.96	810.50
812.08	836.25
812.19	807.50
812.31	825.75
812.42	803.50
812.54	787.00
812.65	846.50
812.77	849.25
812.88	842.00
813.00	847.75
813.11	825.25
813.22	785.00
813.34	793.50
813.45	812.75
813.57	891.00
813.68	893.25
813.80	812.75
813.91	773.00
814.03	795.50
814.14	889.50
814.26	792.00
814.37	806.00
814.49	805.50
814.60	783.25
814.71	789.00
814.83	802.50
814.94	757.50
815.06	787.50
815.17	797.25
815.29	802.75
815.40	771.50
815.52	891.50
815.63	803.50
815.75	780.75
815.86	813.50
815.97	763.50
816.09	808.25
816.20	824.50
816.32	823.75
816.43	756.75
816.55	819.00
816.66	796.50
816.78	882.00
816.89	805.50
817.00	813.25
817.12	792.75
817.23	778.00
817.35	844.50
817.46	813.00
817.58	789.75
817.69	930.50
817.81	822.50
817.92	842.00
818.03	814.25
818.15	814.75
818.26	781.00
818.38	776.75
818.49	801.00
818.61	809.00
818.72	774.00
818.83	1641.50
818.95	914.00
819.06	789.50
819.18	802.25
819.29	821.25
819.41	813.75
819.52	826.00
819.64	816.75
819.75	784.00
819.86	767.25
819.98	790.25
820.09	827.00
820.21	808.25
820.32	776.25
820.44	821.25
820.55	869.00
820.66	792.75
820.78	832.75
820.89	805.25
821.01	835.75
821.12	813.50
821.23	824.00
821.35	793.50
821.46	852.25
821.58	808.00
821.69	801.50
821.81	782.75
821.92	867.75
822.03	809.50
822.15	828.00
822.26	773.00
822.38	774.50
822.49	831.25
822.61	812.25
822.72	823.75
822.83	859.00
822.95	806.75
823.06	812.00
823.18	855.50
823.29	886.00
823.40	840.50
823.52	801.00
823.63	766.25
823.75	897.00
823.86	815.25
823.97	766.75
824.09	846.00
824.20	782.00
824.32	826.00
824.43	808.00
824.55	845.00
824.66	907.25
824.77	811.00
824.89	837.75
825.00	874.50
825.12	817.25
825.23	836.00
825.34	764.75
825.46	776.25
825.57	843.75
825.69	801.00
825.80	746.25
825.91	789.50
826.03	761.75
826.14	830.50
826.26	781.00
826.37	811.50
826.48	801.25
826.60	818.75
826.71	784.50
826.83	817.25
826.94	829.50
827.05	858.50
827.17	850.75
827.28	796.00
827.39	788.00
827.51	772.75
827.62	812.50
827.74	814.00
827.85	809.25
827.96	793.50
828.08	804.50
828.19	903.50
828.31	797.75
828.42	752.50
828.53	824.50
828.65	859.50
828.76	864.25
828.87	834.25
828.99	779.50
