Wavelength (nm)	Intensity
377.35	804.00
377.48	597.50
377.62	602.00
377.75	618.50
377.88	832.00
378.02	808.25
378.15	816.25
378.28	791.25
378.41	864.25
378.55	833.25
378.68	809.25
378.81	793.75
378.95	822.75
379.08	809.25
379.21	778.00
379.35	834.00
379.48	844.25
379.61	886.75
379.74	819.25
379.88	796.25
380.01	874.50
380.14	930.00
380.28	856.25
380.41	780.00
380.54	835.75
380.68	850.75
380.81	756.25
380.94	843.25
381.07	884.75
381.21	886.50
381.34	814.25
381.47	763.25
381.61	963.25
381.74	824.25
381.87	792.50
382.00	833.75
382.14	910.75
382.27	860.75
382.40	795.00
382.54	881.00
382.67	888.50
382.80	793.75
382.93	793.50
383.07	821.50
383.20	816.50
383.33	856.75
383.47	792.75
383.60	775.00
383.73	973.00
383.86	851.50
384.00	810.75
384.13	802.25
384.26	857.75
384.40	885.25
384.53	825.50
384.66	856.50
384.79	839.75
384.93	805.50
385.06	807.75
385.19	834.25
385.33	939.25
385.46	857.50
385.59	794.00
385.72	824.00
385.86	774.25
385.99	802.50
386.12	809.50
386.25	787.25
386.39	860.00
386.52	877.00
386.65	817.25
386.79	801.75
386.92	807.25
387.05	899.00
387.18	768.50
387.32	784.75
387.45	857.00
387.58	834.50
387.71	808.00
387.85	795.50
387.98	842.50
388.11	854.25
388.25	827.50
388.38	822.00
388.51	857.00
388.64	866.75
388.78	801.75
388.91	776.00
389.04	817.25
389.17	927.00
389.31	823.50
389.44	848.25
389.57	881.00
389.70	849.75
389.84	797.75
389.97	794.25
390.10	802.25
390.24	847.75
390.37	807.75
390.50	799.00
390.63	890.75
390.77	817.50
390.90	823.00
391.03	813.75
391.16	778.25
391.30	807.75
391.43	808.50
391.56	802.75
391.69	787.50
391.83	870.75
391.96	827.00
392.09	807.25
392.22	914.50
392.36	846.25
392.49	793.50
392.62	802.25
392.75	841.75
392.89	877.75
393.02	788.00
393.15	785.50
393.28	775.75
393.42	909.75
393.55	770.00
393.68	801.50
393.81	750.75
393.95	814.50
394.08	801.00
394.21	798.75
394.34	855.75
394.48	852.50
394.61	853.25
394.74	831.00
394.87	857.75
395.01	844.50
395.14	841.00
395.27	795.75
395.40	917.50
395.54	913.25
395.67	825.25
395.80	802.75
395.93	847.50
396.07	794.25
396.20	796.50
396.33	756.25
396.46	808.50
396.59	819.75
396.73	809.25
396.86	782.75
396.99	865.50
397.12	844.50
397.26	825.25
397.39	814.25
397.52	1114.25
397.65	929.00
397.79	810.75
397.92	808.75
398.05	881.50
398.18	806.00
398.32	823.00
398.45	852.00
398.58	846.75
398.71	852.25
398.84	775.25
398.98	809.50
399.11	856.75
399.24	842.00
399.37	803.50
399.51	778.50
399.64	815.50
399.77	832.25
399.90	817.25
400.03	814.75
400.17	770.50
400.30	883.75
400.43	842.00
400.56	818.25
400.70	835.75
400.83	798.25
400.96	791.00
401.09	829.00
401.23	826.00
401.36	880.50
401.49	802.75
401.62	831.25
401.75	812.50
401.89	782.00
402.02	816.00
402.15	821.25
402.28	843.25
402.41	833.75
402.55	806.75
402.68	811.00
402.81	894.25
402.94	860.00
403.08	799.75
403.21	777.75
403.34	859.50
403.47	858.50
403.60	807.25
403.74	840.00
403.87	858.50
404.00	801.50
404.13	791.00
404.26	774.50
404.40	795.25
404.53	837.00
404.66	814.50
404.79	786.75
404.93	866.00
405.06	831.00
405.19	758.25
405.32	821.50
405.45	839.00
405.59	861.50
405.72	824.00
405.85	800.75
405.98	1003.00
406.11	798.50
406.25	792.50
406.38	812.50
406.51	862.50
406.64	821.00
406.77	776.50
406.91	779.00
407.04	836.50
407.17	808.50
407.30	826.75
407.43	806.25
407.57	905.00
407.70	883.50
407.83	786.75
407.96	816.50
408.09	790.25
408.23	912.75
408.36	821.50
408.49	804.75
408.62	939.00
408.75	835.00
408.89	797.00
409.02	838.25
409.15	821.50
409.28	910.50
409.41	843.25
409.55	805.00
409.68	945.50
409.81	847.00
409.94	799.75
410.07	826.25
410.20	833.75
410.34	807.50
410.47	818.25
410.60	828.50
410.73	865.00
410.86	795.75
411.00	818.00
411.13	803.50
411.26	832.00
411.39	826.50
411.52	846.50
411.66	798.50
411.79	807.50
411.92	786.00
412.05	814.50
412.18	807.00
412.31	845.50
412.45	868.75
412.58	855.00
412.71	787.25
412.84	844.25
412.97	907.00
413.11	827.25
413.24	843.75
413.37	863.75
413.50	927.00
413.63	831.50
413.76	806.25
413.90	859.50
414.03	817.75
414.16	808.50
414.29	842.75
414.42	820.50
414.56	938.50
414.69	806.75
414.82	818.50
414.95	829.50
415.08	845.25
415.21	817.75
415.35	835.75
415.48	756.25
415.61	873.00
415.74	871.75
415.87	780.75
416.00	836.75
416.14	948.75
416.27	829.00
416.40	801.50
416.53	824.00
416.66	854.00
416.79	829.50
416.93	797.25
417.06	844.25
417.19	829.50
417.32	813.75
417.45	808.00
417.58	777.50
417.72	870.75
417.85	799.75
417.98	824.00
418.11	862.75
418.24	796.75
418.37	803.75
418.51	825.75
418.64	843.00
418.77	917.00
418.90	836.50
419.03	791.25
419.16	842.50
419.29	870.75
419.43	802.00
419.56	786.50
419.69	935.25
419.82	875.25
419.95	819.50
420.08	864.50
420.22	903.75
420.35	957.25
420.48	869.00
420.61	814.75
420.74	778.00
420.87	858.50
421.00	790.25
421.14	804.00
421.27	870.25
421.40	905.50
421.53	844.00
421.66	824.25
421.79	822.00
421.93	830.75
422.06	819.50
422.19	797.75
422.32	870.00
422.45	874.25
422.58	833.25
422.71	811.50
422.85	879.50
422.98	870.00
423.11	781.00
423.24	767.25
423.37	798.00
423.50	806.25
423.63	819.25
423.77	794.75
423.90	794.75
424.03	850.50
424.16	865.00
424.29	822.75
424.42	778.00
424.55	801.00
424.69	793.75
424.82	823.75
424.95	835.00
425.08	799.00
425.21	844.50
425.34	810.75
425.47	826.25
425.60	854.25
425.74	778.75
425.87	821.25
426.00	822.00
426.13	841.00
426.26	797.25
426.39	793.75
426.52	823.25
426.66	895.50
426.79	857.00
426.92	803.00
427.05	931.25
427.18	894.75
427.31	820.50
427.44	816.50
427.57	802.00
427.71	825.00
427.84	796.50
427.97	832.25
428.10	887.25
428.23	836.75
428.36	806.75
428.49	741.00
428.62	950.00
428.76	929.50
428.89	843.50
429.02	773.00
429.15	819.75
429.28	929.75
429.41	814.00
429.54	820.50
429.67	809.25
429.81	859.50
429.94	827.25
430.07	809.25
430.20	874.00
430.33	899.50
430.46	798.50
430.59	793.00
430.72	828.75
430.85	782.25
430.99	817.50
431.12	792.25
431.25	880.50
431.38	896.50
431.51	832.00
431.64	824.25
431.77	908.75
431.90	911.00
432.03	835.25
432.17	796.00
432.30	840.25
432.43	858.50
432.56	828.25
432.69	848.25
432.82	840.00
432.95	884.50
433.08	821.00
433.21	832.00
433.35	820.75
433.48	826.00
433.61	781.00
433.74	818.50
433.87	803.75
434.00	853.50
434.13	799.75
434.26	852.00
434.39	842.25
434.53	864.25
434.66	820.25
434.79	819.00
434.92	822.25
435.05	903.25
435.18	807.25
435.31	854.75
435.44	900.00
435.57	843.25
435.70	826.25
435.84	798.75
435.97	898.25
436.10	941.75
436.23	811.75
436.36	796.00
436.49	825.75
436.62	857.00
436.75	825.00
436.88	844.25
437.01	806.00
437.14	804.00
437.28	768.75
437.41	810.25
437.54	897.25
437.67	866.50
437.80	807.00
437.93	787.00
438.06	951.25
438.19	881.25
438.32	793.00
438.45	802.25
438.58	861.50
438.72	916.25
438.85	867.00
438.98	820.50
439.11	853.75
439.24	907.50
439.37	892.00
439.50	855.50
439.63	888.00
439.76	813.00
439.89	803.25
440.02	815.50
440.15	862.25
440.29	897.25
440.42	828.25
440.55	822.25
440.68	912.50
440.81	960.25
440.94	840.25
441.07	826.75
441.20	929.00
441.33	853.50
441.46	810.25
441.59	811.50
441.72	833.75
441.85	843.25
441.99	862.00
442.12	872.00
442.25	933.00
442.38	862.50
442.51	852.75
442.64	789.50
442.77	837.25
442.90	824.50
443.03	783.75
443.16	807.75
443.29	836.75
443.42	904.00
443.55	809.25
443.68	850.50
443.82	786.50
443.95	819.00
444.08	819.50
444.21	836.75
444.34	800.50
444.47	829.00
444.60	823.75
444.73	837.00
444.86	842.50
444.99	890.25
445.12	852.50
445.25	845.75
445.38	858.00
445.51	884.75
445.64	841.50
445.78	809.25
445.91	776.25
446.04	948.75
446.17	876.50
446.30	783.75
446.43	855.00
446.56	846.50
446.69	811.00
446.82	814.25
446.95	881.75
447.08	911.00
447.21	843.00
447.34	821.50
447.47	889.75
447.60	874.75
447.73	840.00
447.86	868.00
447.99	849.75
448.13	849.50
448.26	871.25
448.39	828.00
448.52	863.75
448.65	875.75
448.78	823.00
448.91	819.75
449.04	860.75
449.17	819.75
449.30	861.00
449.43	838.25
449.56	835.25
449.69	896.50
449.82	832.25
449.95	789.25
450.08	889.00
450.21	862.00
450.34	830.75
450.47	822.25
450.60	865.00
450.73	839.25
450.87	817.00
451.00	848.75
451.13	877.00
451.26	1006.75
451.39	821.00
451.52	851.00
451.65	835.50
451.78	829.50
451.91	823.50
452.04	813.00
452.17	939.00
452.30	928.75
452.43	819.50
452.56	821.50
452.69	892.25
452.82	810.00
452.95	873.25
453.08	805.00
453.21	776.75
453.34	884.75
453.47	810.50
453.60	883.75
453.73	934.50
453.86	867.75
453.99	854.75
454.12	850.00
454.25	836.50
454.38	856.25
454.52	812.75
454.65	823.00
454.78	823.00
454.91	786.00
455.04	811.25
455.17	801.25
455.30	815.75
455.43	900.25
455.56	823.75
455.69	800.50
455.82	870.50
455.95	851.75
456.08	789.00
456.21	795.50
456.34	789.75
456.47	779.50
456.60	824.25
456.73	810.00
456.86	833.25
456.99	866.75
457.12	815.00
457.25	819.25
457.38	906.75
457.51	871.75
457.64	850.25
457.77	831.75
457.90	834.25
458.03	817.25
458.16	824.75
458.29	824.25
458.42	833.50
458.55	783.50
458.68	809.75
458.81	825.25
458.94	905.50
459.07	940.00
459.20	789.75
459.33	819.25
459.46	906.25
459.59	942.00
459.72	903.50
459.85	841.00
459.98	914.00
460.11	880.00
460.24	841.00
460.37	808.00
460.50	883.25
460.63	858.25
460.76	823.25
460.89	841.25
461.02	866.00
461.15	878.25
461.28	841.75
461.41	828.75
461.54	916.75
461.67	813.75
461.80	842.75
461.93	886.50
462.06	869.25
462.19	897.25
462.32	827.00
462.45	809.75
462.58	875.25
462.71	827.50
462.84	836.00
462.97	782.00
463.10	843.25
463.23	858.50
463.36	876.75
463.49	848.50
463.62	803.25
463.75	877.25
463.88	829.00
464.01	834.75
464.14	809.75
464.27	936.50
464.40	839.50
464.53	831.00
464.66	878.50
464.79	863.50
464.92	848.75
465.05	809.00
465.18	838.75
465.31	839.50
465.44	840.00
465.57	825.75
465.70	835.50
465.83	957.25
465.96	854.50
466.09	818.75
466.22	888.50
466.35	874.00
466.48	823.00
466.61	823.25
466.74	840.00
466.87	889.75
467.00	876.50
467.13	863.25
467.26	887.25
467.39	803.25
467.52	807.50
467.65	838.00
467.78	924.25
467.91	851.75
468.04	859.75
468.17	825.25
468.30	842.25
468.43	805.75
468.56	817.50
468.69	864.50
468.82	880.00
468.95	811.75
469.08	835.25
469.21	842.50
469.34	889.50
469.47	962.75
469.60	929.00
469.73	868.50
469.86	875.50
469.99	902.50
470.11	823.00
470.24	832.00
470.37	896.50
470.50	864.75
470.63	836.25
470.76	854.75
470.89	898.25
471.02	957.75
471.15	836.25
471.28	847.75
471.41	957.75
471.54	882.75
471.67	848.75
471.80	791.00
471.93	909.25
472.06	877.00
472.19	845.00
472.32	826.25
472.45	970.25
472.58	907.00
472.71	866.75
472.84	830.00
472.97	833.25
473.10	815.25
473.23	904.25
473.36	803.75
473.49	922.50
473.62	908.75
473.74	882.75
473.87	897.25
474.00	836.50
474.13	829.25
474.26	874.50
474.39	881.75
474.52	864.75
474.65	872.50
474.78	866.00
474.91	816.50
475.04	888.50
475.17	989.25
475.30	890.25
475.43	879.50
475.56	914.75
475.69	856.25
475.82	883.50
475.95	828.25
476.08	937.50
476.21	873.00
476.34	911.00
476.46	896.00
476.59	934.00
476.72	859.50
476.85	853.50
476.98	833.75
477.11	923.00
477.24	878.50
477.37	814.25
477.50	853.50
477.63	883.75
477.76	833.75
477.89	800.25
478.02	823.75
478.15	871.25
478.28	857.00
478.41	885.25
478.54	849.50
478.66	913.25
478.79	862.50
478.92	854.75
479.05	866.50
479.18	880.50
479.31	847.25
479.44	847.50
479.57	847.25
479.70	865.00
479.83	881.25
479.96	857.25
480.09	890.00
480.22	1003.50
480.35	991.50
480.48	915.50
480.60	873.50
480.73	866.50
480.86	904.25
480.99	867.75
481.12	867.75
481.25	883.25
481.38	947.00
481.51	865.75
481.64	875.00
481.77	908.75
481.90	875.25
482.03	879.00
482.16	864.00
482.29	946.75
482.41	891.75
482.54	906.75
482.67	860.75
482.80	878.00
482.93	939.00
483.06	854.75
483.19	938.00
483.32	913.00
483.45	893.25
483.58	894.75
483.71	913.25
483.84	928.50
483.97	911.25
484.09	886.00
484.22	876.00
484.35	851.75
484.48	829.00
484.61	861.50
484.74	868.00
484.87	905.75
485.00	851.00
485.13	909.25
485.26	843.50
485.39	916.75
485.52	885.00
485.64	953.50
485.77	911.50
485.90	937.00
486.03	856.50
486.16	909.50
486.29	859.50
486.42	893.00
486.55	905.00
486.68	883.50
486.81	912.75
486.94	906.75
487.06	884.25
487.19	925.00
487.32	909.25
487.45	907.00
487.58	878.00
487.71	892.25
487.84	863.00
487.97	922.75
488.10	939.50
488.23	882.50
488.35	847.50
488.48	885.25
488.61	853.75
488.74	878.00
488.87	871.25
489.00	899.00
489.13	992.25
489.26	926.00
489.39	928.25
489.52	940.25
489.64	917.50
489.77	908.75
489.90	901.00
490.03	894.25
490.16	882.75
490.29	885.00
490.42	882.00
490.55	907.50
490.68	873.50
490.81	878.75
490.93	852.75
491.06	968.75
491.19	916.00
491.32	908.50
491.45	924.00
491.58	862.50
491.71	905.75
491.84	886.75
491.97	883.00
492.09	965.75
492.22	928.00
492.35	919.75
492.48	936.75
492.61	913.25
492.74	903.50
492.87	927.75
493.00	907.00
493.12	881.00
493.25	913.25
493.38	896.50
493.51	866.50
493.64	868.00
493.77	908.00
493.90	932.75
494.03	926.00
494.16	970.75
494.28	981.50
494.41	893.00
494.54	904.50
494.67	1018.75
494.80	991.50
494.93	910.50
495.06	936.25
495.19	940.25
495.31	916.00
495.44	900.25
495.57	878.75
495.70	935.00
495.83	910.75
495.96	875.50
496.09	918.25
496.22	991.75
496.34	1006.50
496.47	905.75
496.60	927.00
496.73	966.75
496.86	962.25
496.99	892.25
497.12	922.00
497.24	862.50
497.37	924.25
497.50	903.00
497.63	891.25
497.76	913.75
497.89	981.00
498.02	945.75
498.15	846.00
498.27	922.25
498.40	976.25
498.53	989.75
498.66	929.50
498.79	961.25
498.92	877.00
499.05	920.00
499.17	926.00
499.30	960.00
499.43	1021.75
499.56	943.50
499.69	880.00
499.82	934.50
499.95	913.00
500.07	899.50
500.20	928.25
500.33	960.00
500.46	1062.25
500.59	932.50
500.72	936.75
500.85	983.75
500.97	982.75
501.10	983.50
501.23	892.00
501.36	935.75
501.49	999.50
501.62	946.50
501.75	925.50
501.87	983.25
502.00	878.25
502.13	937.75
502.26	943.25
502.39	918.00
502.52	918.50
502.64	883.25
502.77	903.75
502.90	962.00
503.03	936.75
503.16	910.50
503.29	918.00
503.42	987.00
503.54	937.75
503.67	934.75
503.80	930.50
503.93	983.75
504.06	898.25
504.19	924.75
504.31	983.75
504.44	956.00
504.57	952.00
504.70	942.25
504.83	902.00
504.96	956.75
505.08	927.50
505.21	939.25
505.34	1033.75
505.47	991.50
505.60	966.50
505.73	988.00
505.85	976.25
505.98	1081.00
506.11	939.50
506.24	899.50
506.37	905.25
506.50	948.75
506.62	988.75
506.75	924.00
506.88	909.25
507.01	954.25
507.14	890.00
507.27	928.50
507.39	910.50
507.52	928.25
507.65	920.00
507.78	956.75
507.91	915.25
508.04	1001.75
508.16	1008.25
508.29	962.00
508.42	927.50
508.55	901.50
508.68	919.25
508.81	986.00
508.93	923.00
509.06	926.25
509.19	989.25
509.32	972.25
509.45	945.75
509.57	971.75
509.70	919.25
509.83	946.00
509.96	896.75
510.09	947.50
510.22	942.00
510.34	950.75
510.47	945.50
510.60	1055.75
510.73	971.00
510.86	965.75
510.98	936.00
511.11	932.50
511.24	994.25
511.37	972.00
511.50	936.00
511.63	959.75
511.75	956.75
511.88	942.50
512.01	965.00
512.14	953.50
512.27	966.25
512.39	942.50
512.52	934.25
512.65	963.25
512.78	925.75
512.91	952.00
513.03	952.00
513.16	995.75
513.29	965.75
513.42	943.00
513.55	902.50
513.67	968.75
513.80	912.75
513.93	926.75
514.06	935.50
514.19	969.75
514.31	976.25
514.44	1000.50
514.57	953.75
514.70	965.25
514.83	1012.75
514.95	936.75
515.08	961.75
515.21	981.00
515.34	963.75
515.47	958.00
515.59	928.50
515.72	984.50
515.85	979.50
515.98	1007.25
516.11	971.00
516.23	993.50
516.36	1034.50
516.49	973.75
516.62	961.00
516.75	1028.50
516.87	1024.00
517.00	938.75
517.13	986.50
517.26	1020.00
517.39	981.00
517.51	903.25
517.64	964.00
517.77	1038.00
517.90	932.00
518.02	963.25
518.15	928.00
518.28	894.00
518.41	962.75
518.54	967.25
518.66	973.50
518.79	935.25
518.92	950.75
519.05	929.00
519.18	963.25
519.30	997.25
519.43	923.25
519.56	941.25
519.69	942.75
519.81	1010.00
519.94	962.00
520.07	904.00
520.20	944.75
520.33	980.25
520.45	1038.75
520.58	981.25
520.71	998.50
520.84	1015.75
520.96	992.75
521.09	974.75
521.22	944.00
521.35	1007.25
521.48	1007.50
521.60	945.25
521.73	973.50
521.86	1038.25
521.99	1051.25
522.11	986.50
522.24	963.00
522.37	1001.75
522.50	1004.75
522.62	1025.75
522.75	921.25
522.88	990.00
523.01	946.50
523.14	998.75
523.26	990.25
523.39	1043.50
523.52	954.25
523.65	1067.25
523.77	1006.25
523.90	979.25
524.03	970.50
524.16	965.50
524.28	963.50
524.41	962.25
524.54	974.50
524.67	932.75
524.79	957.50
524.92	1007.25
525.05	1052.50
525.18	933.50
525.31	1013.75
525.43	946.75
525.56	1093.00
525.69	960.25
525.82	908.50
525.94	1006.50
526.07	1019.00
526.20	997.25
526.33	1017.25
526.45	1104.00
526.58	1085.50
526.71	1006.00
526.84	968.25
526.96	986.75
527.09	960.25
527.22	972.75
527.35	979.75
527.47	930.25
527.60	1047.50
527.73	953.25
527.86	1012.00
527.98	1007.25
528.11	1009.25
528.24	959.25
528.37	968.75
528.49	939.00
528.62	975.00
528.75	1020.25
528.88	959.75
529.00	1009.75
529.13	1033.75
529.26	987.50
529.39	1016.25
529.51	1114.25
529.64	1088.00
529.77	962.25
529.90	975.75
530.02	979.00
530.15	959.00
530.28	922.50
530.40	955.75
530.53	981.50
530.66	1014.00
530.79	978.25
530.91	985.00
531.04	973.25
531.17	978.50
531.30	984.00
531.42	977.00
531.55	994.00
531.68	1053.25
531.81	964.00
531.93	978.25
532.06	999.25
532.19	951.00
532.31	983.25
532.44	979.25
532.57	1012.50
532.70	961.50
532.82	1006.75
532.95	1017.00
533.08	1050.75
533.21	1019.25
533.33	965.25
533.46	972.00
533.59	974.00
533.71	1100.00
533.84	1001.50
533.97	971.25
534.10	984.00
534.22	960.25
534.35	984.25
534.48	990.00
534.61	1025.25
534.73	928.75
534.86	956.00
534.99	1000.75
535.11	1050.50
535.24	1014.50
535.37	967.25
535.50	952.25
535.62	958.25
535.75	1061.00
535.88	995.00
536.00	973.75
536.13	978.25
536.26	986.25
536.39	976.75
536.51	950.50
536.64	1021.00
536.77	992.00
536.89	985.25
537.02	985.75
537.15	1021.00
537.28	1000.25
537.40	1014.50
537.53	981.25
537.66	1044.25
537.78	1014.50
537.91	958.50
538.04	965.75
538.17	1033.50
538.29	1027.75
538.42	1068.75
538.55	1064.50
538.67	1036.00
538.80	983.75
538.93	1021.25
539.05	1005.25
539.18	1061.00
539.31	1040.75
539.44	1014.75
539.56	933.75
539.69	993.25
539.82	981.00
539.94	1002.75
540.07	972.75
540.20	1058.25
540.32	972.50
540.45	994.00
540.58	983.75
540.71	1044.00
540.83	942.75
540.96	979.00
541.09	1002.50
541.21	1079.00
541.34	1076.75
541.47	974.75
541.59	1007.50
541.72	1085.75
541.85	1157.25
541.98	1061.25
542.10	993.25
542.23	1025.25
542.36	1137.75
542.48	1028.00
542.61	1001.75
542.74	967.00
542.86	995.75
542.99	1000.50
543.12	989.00
543.24	1009.00
543.37	939.50
543.50	1002.00
543.62	978.00
543.75	1000.00
543.88	997.25
544.01	1015.50
544.13	1036.00
544.26	1044.50
544.39	987.75
544.51	981.50
544.64	975.50
544.77	1036.00
544.89	989.25
545.02	1021.75
545.15	987.50
545.27	1096.25
545.40	1068.25
545.53	1038.75
545.65	1045.75
545.78	942.25
545.91	970.75
546.03	996.50
546.16	1003.00
546.29	1003.50
546.41	970.75
546.54	994.75
546.67	983.25
546.79	1049.50
546.92	1087.75
547.05	967.25
547.17	1014.50
547.30	1000.00
547.43	1047.25
547.56	978.00
547.68	1002.50
547.81	965.50
547.94	1030.75
548.06	995.25
548.19	982.00
548.32	1077.25
548.44	1024.50
548.57	1040.75
548.70	1050.00
548.82	1062.50
548.95	1040.25
549.08	1017.50
549.20	1014.00
549.33	1106.25
549.45	1031.50
549.58	1008.00
549.71	975.50
549.83	1062.50
549.96	975.25
550.09	1019.75
550.21	996.50
550.34	1035.00
550.47	1011.50
550.59	1007.00
550.72	951.50
550.85	1016.00
550.97	1068.75
551.10	998.50
551.23	1011.25
551.35	1097.00
551.48	1036.00
551.61	1014.75
551.73	999.50
551.86	1084.75
551.99	1092.50
552.11	1027.50
552.24	1063.25
552.37	1037.00
552.49	1003.00
552.62	1001.50
552.75	1053.25
552.87	1000.00
553.00	1007.50
553.12	1029.50
553.25	1024.00
553.38	1055.25
553.50	1075.00
553.63	1019.75
553.76	957.50
553.88	1019.25
554.01	1018.50
554.14	1018.75
554.26	1041.00
554.39	1097.00
554.52	1029.50
554.64	1027.25
554.77	1020.75
554.89	1064.75
555.02	1080.75
555.15	1049.00
555.27	1027.50
555.40	1032.75
555.53	1091.75
555.65	1019.25
555.78	993.50
555.91	1064.50
556.03	1107.25
556.16	1002.00
556.29	1028.50
556.41	1098.25
556.54	1094.50
556.66	1035.50
556.79	1019.00
556.92	1042.50
557.04	1054.25
557.17	1024.25
557.30	1013.75
557.42	1024.00
557.55	1031.75
557.67	1048.75
557.80	1029.50
557.93	1035.25
558.05	1033.75
558.18	1001.00
558.31	1032.75
558.43	1080.75
558.56	1059.75
558.68	1041.50
558.81	1012.25
558.94	1028.00
559.06	1145.00
559.19	1029.00
559.32	1030.25
559.44	1002.50
559.57	1041.00
559.69	1004.50
559.82	1000.75
559.95	1018.00
560.07	1026.25
560.20	962.00
560.33	1037.00
560.45	1060.00
560.58	989.00
560.70	1040.25
560.83	1008.75
560.96	1032.75
561.08	1041.75
561.21	1062.75
561.33	1006.25
561.46	991.75
561.59	1086.00
561.71	1023.75
561.84	1046.75
561.97	999.75
562.09	1066.00
562.22	1012.00
562.34	1008.00
562.47	1075.25
562.60	1062.75
562.72	1041.00
562.85	1036.25
562.97	1036.50
563.10	1031.25
563.23	1009.25
563.35	1012.50
563.48	1057.00
563.60	1041.50
563.73	1071.25
563.86	994.50
563.98	1024.75
564.11	1042.25
564.23	1035.00
564.36	1107.75
564.49	1046.75
564.61	1106.00
564.74	1060.25
564.86	1018.50
564.99	1100.50
565.12	1081.00
565.24	1095.75
565.37	1083.75
565.49	1095.75
565.62	1124.00
565.75	1086.50
565.87	1017.25
566.00	1179.00
566.12	1106.50
566.25	1043.75
566.38	1085.75
566.50	1061.75
566.63	1100.00
566.75	1038.50
566.88	1020.25
567.01	1022.25
567.13	1031.25
567.26	1050.75
567.38	1031.50
567.51	1097.50
567.64	1026.00
567.76	1076.50
567.89	1064.00
568.01	1024.75
568.14	1003.25
568.26	1057.25
568.39	1059.50
568.52	1054.00
568.64	1074.00
568.77	1038.75
568.89	1039.75
569.02	1034.75
569.15	1054.00
569.27	1042.00
569.40	1077.25
569.52	1087.50
569.65	1050.25
569.77	1043.75
569.90	1000.75
570.03	1006.25
570.15	1114.00
570.28	1053.75
570.40	1047.75
570.53	1054.50
570.66	1111.75
570.78	1091.25
570.91	1062.25
571.03	1017.00
571.16	1058.75
571.28	1006.50
571.41	994.50
571.54	1006.75
571.66	995.50
571.79	1027.75
571.91	1029.75
572.04	1016.50
572.16	1061.50
572.29	1079.00
572.42	1036.00
572.54	1067.25
572.67	1025.00
572.79	1064.75
572.92	1045.75
573.04	1084.75
573.17	1104.75
573.29	1063.50
573.42	1043.25
573.55	1088.00
573.67	1094.50
573.80	1055.00
573.92	1029.75
574.05	1064.00
574.17	1116.75
574.30	1065.00
574.43	1053.25
574.55	1040.00
574.68	1064.00
574.80	1044.25
574.93	1041.00
575.05	1012.50
575.18	1053.75
575.30	1041.75
575.43	1086.25
575.56	1115.75
575.68	1076.25
575.81	1049.50
575.93	1031.25
576.06	1078.00
576.18	1100.50
576.31	1049.25
576.43	1038.75
576.56	1150.75
576.69	1119.50
576.81	1078.00
576.94	1050.50
577.06	1066.00
577.19	1090.50
577.31	1071.75
577.44	1074.00
577.56	1108.50
577.69	1082.25
577.82	1064.75
577.94	1038.50
578.07	1009.50
578.19	1078.50
578.32	1096.25
578.44	1037.25
578.57	1048.25
578.69	1110.00
578.82	1076.75
578.94	1102.75
579.07	1118.00
579.19	1115.50
579.32	1085.00
579.45	1073.75
579.57	1068.00
579.70	1039.00
579.82	1091.50
579.95	1058.50
580.07	1124.50
580.20	1054.25
580.32	1068.25
580.45	1106.50
580.57	1096.00
580.70	1072.50
580.82	1085.50
580.95	1098.50
581.08	1023.75
581.20	1120.75
581.33	1073.75
581.45	1080.75
581.58	1077.00
581.70	1099.00
581.83	1008.25
581.95	1091.50
582.08	1089.25
582.20	1059.25
582.33	1073.75
582.45	1046.75
582.58	1060.25
582.70	1092.75
582.83	1053.25
582.95	1074.00
583.08	1104.75
583.21	1118.50
583.33	1083.75
583.46	1053.75
583.58	1031.25
583.71	1111.50
583.83	1093.25
583.96	1089.25
584.08	1097.25
584.21	1108.00
584.33	1092.00
584.46	1069.25
584.58	1033.75
584.71	1114.50
584.83	1101.25
584.96	1071.25
585.08	1059.75
585.21	1179.50
585.33	1136.25
585.46	1102.25
585.58	1119.75
585.71	1074.00
585.83	1076.00
585.96	1111.75
586.08	1109.25
586.21	1090.25
586.33	1114.25
586.46	1047.50
586.59	1105.75
586.71	1052.00
586.84	1103.00
586.96	1084.50
587.09	1027.75
587.21	1059.50
587.34	1113.75
587.46	1049.25
587.59	1033.00
587.71	1077.00
587.84	1066.25
587.96	1022.50
588.09	1038.25
588.21	1093.75
588.34	1061.50
588.46	1079.25
588.59	1045.50
588.71	1101.00
588.84	1081.25
588.96	1071.25
589.09	1162.75
589.21	1092.00
589.34	1052.00
589.46	1078.50
589.59	1092.00
589.71	1133.50
589.84	1036.50
589.96	1050.75
590.09	1074.50
590.21	1112.25
590.34	1090.00
590.46	1085.25
590.59	1058.00
590.71	1064.25
590.84	1126.00
590.96	1055.75
591.09	1108.75
591.21	1094.00
591.34	1062.75
591.46	1066.50
591.59	1129.50
591.71	1106.75
591.83	1076.00
591.96	1025.00
592.08	1068.50
592.21	1121.00
592.33	1085.25
592.46	1062.25
592.58	1096.50
592.71	1120.00
592.83	1162.00
592.96	1110.50
593.08	1142.00
593.21	1044.25
593.33	1039.50
593.46	1081.00
593.58	1071.25
593.71	1125.00
593.83	1136.00
593.96	1067.00
594.08	1205.25
594.21	1099.25
594.33	1066.50
594.46	1054.50
594.58	1041.00
594.71	1022.50
594.83	1094.50
594.96	1072.50
595.08	1245.25
595.20	1124.25
595.33	1112.50
595.45	1060.00
595.58	1175.50
595.70	1107.50
595.83	1075.75
595.95	1090.25
596.08	1094.50
596.20	1041.50
596.33	1045.75
596.45	1079.25
596.58	1060.00
596.70	1048.00
596.83	1059.75
596.95	1063.50
597.08	1099.25
597.20	1056.75
597.32	1065.50
597.45	1107.00
597.57	1082.00
597.70	1115.75
597.82	1075.75
597.95	1091.00
598.07	1086.50
598.20	1087.50
598.32	1087.25
598.45	1068.50
598.57	1133.75
598.70	1148.25
598.82	1070.00
598.94	1075.25
599.07	1138.00
599.19	1091.50
599.32	1071.75
599.44	1005.00
599.57	1121.25
599.69	1095.00
599.82	1076.25
599.94	1058.00
600.07	1126.75
600.19	1107.50
600.31	1070.00
600.44	1121.50
600.56	1192.00
600.69	1182.00
600.81	1063.25
600.94	1080.75
601.06	1097.75
601.19	1123.50
601.31	1138.00
601.44	1047.25
601.56	1153.25
601.68	1122.25
601.81	1109.25
601.93	1095.50
602.06	1119.25
602.18	1060.50
602.31	1084.00
602.43	1139.25
602.56	1119.75
602.68	1091.75
602.80	1085.75
602.93	1096.00
603.05	1077.25
603.18	1108.00
603.30	1052.25
603.43	1063.50
603.55	1085.00
603.68	1122.75
603.80	1104.75
603.92	1102.25
604.05	1069.75
604.17	1075.75
604.30	1060.00
604.42	1075.50
604.55	1079.50
604.67	1114.75
604.79	1072.25
604.92	1077.50
605.04	1063.50
605.17	1069.50
605.29	1072.75
605.42	1075.25
605.54	1168.50
605.66	1110.25
605.79	1107.50
605.91	1081.25
606.04	1094.50
606.16	1061.50
606.29	1105.00
606.41	1058.75
606.53	1087.25
606.66	1036.50
606.78	1078.25
606.91	1077.75
607.03	1073.75
607.16	1063.25
607.28	1061.25
607.40	1101.25
607.53	1119.25
607.65	1058.75
607.78	1065.25
607.90	1098.00
608.03	1206.25
608.15	1111.00
608.27	1107.75
608.40	1057.50
608.52	1110.00
608.65	1097.50
608.77	1131.00
608.89	1098.75
609.02	1168.75
609.14	1170.00
609.27	1114.50
609.39	1137.25
609.52	1081.50
609.64	1034.25
609.76	1070.50
609.89	1077.25
610.01	1142.50
610.14	1120.75
610.26	1094.50
610.38	1069.75
610.51	1138.00
610.63	1079.50
610.76	1061.50
610.88	1123.00
611.01	1146.00
611.13	1193.75
611.25	1125.00
611.38	1057.25
611.50	1104.25
611.63	1124.00
611.75	1108.50
611.87	1113.75
612.00	1076.50
612.12	1149.50
612.25	1083.25
612.37	1081.50
612.49	1163.75
612.62	1149.50
612.74	1165.75
612.87	1098.75
612.99	1092.75
613.11	1046.75
613.24	1090.25
613.36	1092.50
613.49	1112.00
613.61	1106.75
613.73	1082.00
613.86	1130.75
613.98	1074.75
614.11	1137.25
614.23	1138.25
614.35	1145.75
614.48	1146.50
614.60	1116.00
614.72	1089.50
614.85	1120.75
614.97	1110.25
615.10	1115.75
615.22	1100.25
615.34	1102.25
615.47	1158.50
615.59	1080.00
615.72	1113.75
615.84	1121.50
615.96	1085.50
616.09	1197.75
616.21	1096.25
616.34	1081.25
616.46	1092.75
616.58	1127.75
616.71	1124.75
616.83	1142.25
616.95	1133.50
617.08	1133.00
617.20	1095.75
617.33	1066.00
617.45	1098.25
617.57	1124.75
617.70	1113.00
617.82	1094.00
617.95	1111.25
618.07	1179.00
618.19	1127.75
618.32	1123.00
618.44	1086.75
618.56	1070.50
618.69	1045.50
618.81	1050.50
618.94	1148.25
619.06	1104.75
619.18	1101.50
619.31	1061.00
619.43	1075.50
619.55	1126.75
619.68	1123.50
619.80	1073.25
619.92	1126.25
620.05	1242.25
620.17	1166.25
620.30	1112.50
620.42	1122.00
620.54	1165.25
620.67	1103.25
620.79	1120.50
620.91	1127.75
621.04	1179.75
621.16	1096.00
621.29	1078.25
621.41	1057.75
621.53	1093.00
621.66	1102.25
621.78	1100.25
621.90	1153.25
622.03	1206.50
622.15	1117.50
622.27	1105.00
622.40	1128.25
622.52	1098.00
622.64	1100.50
622.77	1067.50
622.89	1130.50
623.02	1149.25
623.14	1125.75
623.26	1134.00
623.39	1134.25
623.51	1162.75
623.63	1101.50
623.76	1077.25
623.88	1170.75
624.00	1120.00
624.13	1082.50
624.25	1077.75
624.37	1071.00
624.50	1159.25
624.62	1137.50
624.75	1068.25
624.87	1071.00
624.99	1143.25
625.12	1096.75
625.24	1103.00
625.36	1194.75
625.49	1157.75
625.61	1121.00
625.73	1117.25
625.86	1159.00
625.98	1119.00
626.10	1083.75
626.23	1070.50
626.35	1143.25
626.47	1094.75
626.60	1075.50
626.72	1088.00
626.84	1097.50
626.97	1129.00
627.09	1098.75
627.21	1101.75
627.34	1229.25
627.46	1209.25
627.58	1114.00
627.71	1122.50
627.83	1153.25
627.95	1078.00
628.08	1116.50
628.20	1158.00
628.32	1055.25
628.45	1039.25
628.57	1052.75
628.69	1074.00
628.82	1134.00
628.94	1169.00
629.06	1103.25
629.19	1085.50
629.31	1146.50
629.43	1087.50
629.56	1135.00
629.68	1116.25
629.80	1157.75
629.93	1080.50
630.05	1091.25
630.17	1089.25
630.30	1107.00
630.42	1093.25
630.54	1139.75
630.67	1107.50
630.79	1090.50
630.91	1239.00
631.04	1135.75
631.16	1134.25
631.28	1131.25
631.41	1094.50
631.53	1083.75
631.65	1136.00
631.78	1144.00
631.90	1118.25
632.02	1118.50
632.14	1045.50
632.27	1184.00
632.39	1128.75
632.51	1090.75
632.64	1163.25
632.76	1116.50
632.88	1111.25
633.01	1132.25
633.13	1106.25
633.25	1117.50
633.38	1232.50
633.50	1067.50
633.62	1072.00
633.75	1064.25
633.87	1056.75
633.99	1133.00
634.11	1081.75
634.24	1110.50
634.36	1112.00
634.48	1105.25
634.61	1096.50
634.73	1144.50
634.85	1097.75
634.98	1096.25
635.10	1111.00
635.22	1122.00
635.35	1250.75
635.47	1151.00
635.59	1114.00
635.71	1142.25
635.84	1158.75
635.96	1112.25
636.08	1165.50
636.21	1103.75
636.33	1136.50
636.45	1128.25
636.58	1090.50
636.70	1069.50
636.82	1143.50
636.94	1097.00
637.07	1072.50
637.19	1154.75
637.31	1157.25
637.44	1145.75
637.56	1072.75
637.68	1143.25
637.81	1143.75
637.93	1134.00
638.05	1092.75
638.17	1174.75
638.30	1237.25
638.42	1122.50
638.54	1093.50
638.67	1127.00
638.79	1129.25
638.91	1098.50
639.03	1116.75
639.16	1116.00
639.28	1125.75
639.40	1114.25
639.53	1100.00
639.65	1155.00
639.77	1125.50
639.89	1137.00
640.02	1116.75
640.14	1135.25
640.26	1089.75
640.39	1150.00
640.51	1101.50
640.63	1138.75
640.75	1173.25
640.88	1119.50
641.00	1102.25
641.12	1090.75
641.24	1205.00
641.37	1120.75
641.49	1082.25
641.61	1231.50
641.74	1101.25
641.86	1142.00
641.98	1085.25
642.10	1138.75
642.23	1145.50
642.35	1110.00
642.47	1152.25
642.60	1143.75
642.72	1169.75
642.84	1079.00
642.96	1081.00
643.09	1092.75
643.21	1096.00
643.33	1106.75
643.45	1101.00
643.58	1179.75
643.70	1201.25
643.82	1119.75
643.94	1119.00
644.07	1136.00
644.19	1139.50
644.31	1143.50
644.44	1140.75
644.56	1119.75
644.68	1087.25
644.80	1103.00
644.93	1091.50
645.05	1118.75
645.17	1153.00
645.29	1132.75
645.42	1147.25
645.54	1128.50
645.66	1168.25
645.78	1134.25
645.91	1117.75
646.03	1149.25
646.15	1208.25
646.27	1108.75
646.40	1138.50
646.52	1167.75
646.64	1183.00
646.76	1125.50
646.89	1089.50
647.01	1178.50
647.13	1161.25
647.25	1165.00
647.38	1122.50
647.50	1122.25
647.62	1173.00
647.74	1092.75
647.87	1095.50
647.99	1154.25
648.11	1156.00
648.23	1137.50
648.36	1097.75
648.48	1194.75
648.60	1145.25
648.72	1110.25
648.85	1106.00
648.97	1189.00
649.09	1163.25
649.21	1123.00
649.34	1157.00
649.46	1158.00
649.58	1161.75
649.70	1168.50
649.83	1110.50
649.95	1162.00
650.07	1182.00
650.19	1177.00
650.32	1140.00
650.44	1196.00
650.56	1164.00
650.68	1121.25
650.81	1134.50
650.93	1138.00
651.05	1203.50
651.17	1107.50
651.29	1157.50
651.42	1142.75
651.54	1176.00
651.66	1115.00
651.78	1117.25
651.91	1172.75
652.03	1262.00
652.15	1163.25
652.27	1120.50
652.40	1152.75
652.52	1138.50
652.64	1160.50
652.76	1137.00
652.88	1251.75
653.01	1158.50
653.13	1109.50
653.25	1080.50
653.37	1176.75
653.50	1186.25
653.62	1173.00
653.74	1108.25
653.86	1183.75
653.98	1180.25
654.11	1122.00
654.23	1147.50
654.35	1139.50
654.47	1269.50
654.60	1140.25
654.72	1141.25
654.84	1109.25
654.96	1188.50
655.08	1135.25
655.21	1178.25
655.33	1147.75
655.45	1200.50
655.57	1158.00
655.70	1152.25
655.82	1212.00
655.94	1230.50
656.06	1191.00
656.18	1132.00
656.31	1210.25
656.43	1199.00
656.55	1133.00
656.67	1159.75
656.79	1153.50
656.92	1216.75
657.04	1174.50
657.16	1138.25
657.28	1277.75
657.40	1175.00
657.53	1192.75
657.65	1142.75
657.77	1207.75
657.89	1217.50
658.01	1148.50
658.14	1110.25
658.26	1191.00
658.38	1154.75
658.50	1126.50
658.62	1116.25
658.75	1281.00
658.87	1196.00
658.99	1181.00
659.11	1128.00
659.23	1213.25
659.36	1263.25
659.48	1208.50
659.60	1187.50
659.72	1179.00
659.84	1169.25
659.97	1190.25
660.09	1200.25
660.21	1274.50
660.33	1219.00
660.45	1115.75
660.58	1085.75
660.70	1141.00
660.82	1152.25
660.94	1108.50
661.06	1159.25
661.19	1216.00
661.31	1197.50
661.43	1172.75
661.55	1155.50
661.67	1192.75
661.80	1252.25
661.92	1176.75
662.04	1179.50
662.16	1182.75
662.28	1231.00
662.40	1174.00
662.53	1177.25
662.65	1204.75
662.77	1147.50
662.89	1189.50
663.01	1158.75
663.14	1171.00
663.26	1210.25
663.38	1179.50
663.50	1140.75
663.62	1157.50
663.74	1168.25
663.87	1155.50
663.99	1193.00
664.11	1215.00
664.23	1302.25
664.35	1164.50
664.48	1151.25
664.60	1166.00
664.72	1159.25
664.84	1140.00
664.96	1165.75
665.08	1220.25
665.21	1186.50
665.33	1197.50
665.45	1118.75
665.57	1184.25
665.69	1256.00
665.81	1179.00
665.94	1142.50
666.06	1144.50
666.18	1197.75
666.30	1170.50
666.42	1156.25
666.54	1190.00
666.67	1203.50
666.79	1137.00
666.91	1199.75
667.03	1178.75
667.15	1136.00
667.27	1166.50
667.40	1138.75
667.52	1162.00
667.64	1217.25
667.76	1162.00
667.88	1140.25
668.00	1216.50
668.13	1223.50
668.25	1150.25
668.37	1155.75
668.49	1166.50
668.61	1224.75
668.73	1166.25
668.85	1187.50
668.98	1200.25
669.10	1198.50
669.22	1169.75
669.34	1180.50
669.46	1222.00
669.58	1177.25
669.71	1193.50
669.83	1170.50
669.95	1173.75
670.07	1188.25
670.19	1171.00
670.31	1167.75
670.43	1168.25
670.56	1208.50
670.68	1226.50
670.80	1207.50
670.92	1195.00
671.04	1247.50
671.16	1171.00
671.28	1168.50
671.41	1176.75
671.53	1220.00
671.65	1173.75
671.77	1176.25
671.89	1331.00
672.01	1293.00
672.13	1223.50
672.26	1159.00
672.38	1204.50
672.50	1168.50
672.62	1180.50
672.74	1207.75
672.86	1193.00
672.98	1200.25
673.11	1191.25
673.23	1194.75
673.35	1259.75
673.47	1198.75
673.59	1195.50
673.71	1153.00
673.83	1220.75
673.96	1298.00
674.08	1207.00
674.20	1158.75
674.32	1195.75
674.44	1186.50
674.56	1209.25
674.68	1206.00
674.80	1232.25
674.93	1202.75
675.05	1182.75
675.17	1199.75
675.29	1246.25
675.41	1239.75
675.53	1202.75
675.65	1191.50
675.77	1181.25
675.90	1241.75
676.02	1165.50
676.14	1167.50
676.26	1282.00
676.38	1311.25
676.50	1212.25
676.62	1222.75
676.74	1179.50
676.87	1192.75
676.99	1218.75
677.11	1246.75
677.23	1231.50
677.35	1239.75
677.47	1153.75
677.59	1178.50
677.71	1219.25
677.83	1231.75
677.96	1211.25
678.08	1200.25
678.20	1205.25
678.32	1172.75
678.44	1197.25
678.56	1197.00
678.68	1351.50
678.80	1247.25
678.93	1206.00
679.05	1214.75
679.17	1207.75
679.29	1252.00
679.41	1194.00
679.53	1165.50
679.65	1173.00
679.77	1220.00
679.89	1197.50
680.01	1241.25
680.14	1231.50
680.26	1136.25
680.38	1187.50
680.50	1237.75
680.62	1289.75
680.74	1239.50
680.86	1190.00
680.98	1206.50
681.10	1230.00
681.22	1303.50
681.35	1184.50
681.47	1197.75
681.59	1189.00
681.71	1291.25
681.83	1218.25
681.95	1180.75
682.07	1270.50
682.19	1225.75
682.31	1193.00
682.43	1170.75
682.56	1239.00
682.68	1166.00
682.80	1186.50
682.92	1231.25
683.04	1227.75
683.16	1205.50
683.28	1185.50
683.40	1236.25
683.52	1208.25
683.64	1248.25
683.76	1180.75
683.89	1196.50
684.01	1211.00
684.13	1265.00
684.25	1211.50
684.37	1206.25
684.49	1258.75
684.61	1202.00
684.73	1215.50
684.85	1199.00
684.97	1179.75
685.09	1279.50
685.21	1178.50
685.34	1210.75
685.46	1339.75
685.58	1237.50
685.70	1227.25
685.82	1252.75
685.94	1188.00
686.06	1192.50
686.18	1180.25
686.30	1196.25
686.42	1180.50
686.54	1242.75
686.66	1194.50
686.79	1300.25
686.91	1256.25
687.03	1327.00
687.15	1248.25
687.27	1219.25
687.39	1223.25
687.51	1310.75
687.63	1244.50
687.75	1263.75
687.87	1253.75
687.99	1295.25
688.11	1200.75
688.23	1244.00
688.35	1274.25
688.48	1258.50
688.60	1199.00
688.72	1212.00
688.84	1232.00
688.96	1255.50
689.08	1221.00
689.20	1214.75
689.32	1344.75
689.44	1240.00
689.56	1173.00
689.68	1196.00
689.80	1210.25
689.92	1196.00
690.04	1214.50
690.16	1265.75
690.28	1243.00
690.41	1248.25
690.53	1195.75
690.65	1252.75
690.77	1281.75
690.89	1274.25
691.01	1224.00
691.13	1204.75
691.25	1195.25
691.37	1223.25
691.49	1179.25
691.61	1187.75
691.73	1318.50
691.85	1236.50
691.97	1216.25
692.09	1198.25
692.21	1268.25
692.33	1295.00
692.45	1246.00
692.57	1208.00
692.70	1240.00
692.82	1260.25
692.94	1182.25
693.06	1209.50
693.18	1249.50
693.30	1212.25
693.42	1197.50
693.54	1230.50
693.66	1262.75
693.78	1254.50
693.90	1221.50
694.02	1242.25
694.14	1261.50
694.26	1224.75
694.38	1251.00
694.50	1242.75
694.62	1253.00
694.74	1198.00
694.86	1197.25
694.98	1240.50
695.10	1249.50
695.22	1283.00
695.34	1213.25
695.46	1210.25
695.58	1235.25
695.71	1257.75
695.83	1221.50
695.95	1221.25
696.07	1296.25
696.19	1198.75
696.31	1220.25
696.43	1205.75
696.55	1320.25
696.67	1266.25
696.79	1219.25
696.91	1249.00
697.03	1230.00
697.15	1318.75
697.27	1244.75
697.39	1216.50
697.51	1281.00
697.63	1218.50
697.75	1218.50
697.87	1245.25
697.99	1192.75
698.11	1164.75
698.23	1208.75
698.35	1220.50
698.47	1236.50
698.59	1263.00
698.71	1231.25
698.83	1280.00
698.95	1214.00
699.07	1259.25
699.19	1226.50
699.31	1236.75
699.43	1218.25
699.55	1276.00
699.67	1228.00
699.79	1227.00
699.91	1225.75
700.03	1247.50
700.15	1237.00
700.27	1200.75
700.39	1234.25
700.51	1202.25
700.63	1239.00
700.75	1235.25
700.87	1272.25
700.99	1228.00
701.11	1263.00
701.24	1250.50
701.36	1279.00
701.48	1295.00
701.60	1280.50
701.72	1215.50
701.84	1324.00
701.96	1257.25
702.08	1232.50
702.20	1321.25
702.32	1287.00
702.44	1290.25
702.56	1249.25
702.68	1245.50
702.80	1254.25
702.92	1347.50
703.04	1314.75
703.16	1252.75
703.28	1264.50
703.40	1239.75
703.52	1264.25
703.64	1271.50
703.76	1264.50
703.88	1233.75
704.00	1222.25
704.12	1236.00
704.24	1299.25
704.36	1257.25
704.48	1264.25
704.60	1214.50
704.72	1252.75
704.84	1239.50
704.96	1290.25
705.07	1272.25
705.19	1229.25
705.31	1250.25
705.43	1292.00
705.55	1228.75
705.67	1270.75
705.79	1266.00
705.91	1197.25
706.03	1263.50
706.15	1263.25
706.27	1243.25
706.39	1243.25
706.51	1234.00
706.63	1243.50
706.75	1296.75
706.87	1281.50
706.99	1329.00
707.11	1274.75
707.23	1249.00
707.35	1278.75
707.47	1258.75
707.59	1305.50
707.71	1302.75
707.83	1269.00
707.95	1299.00
708.07	1256.50
708.19	1400.25
708.31	1287.50
708.43	1230.75
708.55	1278.75
708.67	1322.25
708.79	1278.50
708.91	1300.75
709.03	1285.50
709.15	1320.50
709.27	1247.00
709.39	1267.00
709.51	1263.25
709.63	1294.50
709.75	1297.00
709.87	1222.50
709.99	1305.25
710.11	1244.75
710.23	1236.75
710.35	1234.00
710.47	1369.25
710.58	1329.00
710.70	1313.75
710.82	1324.25
710.94	1278.00
711.06	1266.00
711.18	1287.50
711.30	1256.00
711.42	1310.25
711.54	1269.75
711.66	1294.75
711.78	1247.25
711.90	1304.75
712.02	1329.25
712.14	1251.50
712.26	1224.00
712.38	1330.00
712.50	1339.75
712.62	1268.00
712.74	1247.50
712.86	1258.25
712.98	1328.00
713.10	1240.50
713.22	1234.50
713.34	1280.00
713.45	1261.75
713.57	1292.25
713.69	1243.50
713.81	1264.50
713.93	1282.50
714.05	1279.00
714.17	1239.00
714.29	1346.00
714.41	1334.50
714.53	1268.50
714.65	1286.50
714.77	1273.50
714.89	1244.50
715.01	1334.00
715.13	1250.50
715.25	1294.50
715.37	1250.00
715.49	1238.50
715.61	1313.75
715.72	1315.00
715.84	1338.00
715.96	1276.25
716.08	1263.75
716.20	1355.00
716.32	1329.75
716.44	1269.50
716.56	1277.50
716.68	1291.25
716.80	1370.50
716.92	1337.00
717.04	1296.25
717.16	1308.75
717.28	1281.75
717.40	1278.75
717.52	1302.75
717.63	1261.00
717.75	1292.50
717.87	1287.75
717.99	1289.25
718.11	1277.00
718.23	1360.75
718.35	1309.00
718.47	1297.50
718.59	1239.25
718.71	1290.75
718.83	1264.00
718.95	1313.50
719.07	1242.75
719.19	1269.75
719.30	1272.25
719.42	1301.25
719.54	1280.25
719.66	1300.25
719.78	1298.00
719.90	1226.00
720.02	1283.00
720.14	1303.00
720.26	1332.75
720.38	1310.00
720.50	1277.00
720.62	1223.50
720.74	1307.00
720.85	1297.00
720.97	1356.75
721.09	1385.50
721.21	1288.75
721.33	1363.75
721.45	1304.50
721.57	1312.75
721.69	1268.00
721.81	1240.75
721.93	1355.75
722.05	1315.00
722.16	1259.25
722.28	1246.75
722.40	1276.75
722.52	1355.75
722.64	1361.00
722.76	1259.50
722.88	1313.50
723.00	1308.50
723.12	1273.50
723.24	1294.00
723.36	1230.50
723.47	1336.50
723.59	1300.75
723.71	1289.75
723.83	1324.25
723.95	1281.25
724.07	1302.25
724.19	1311.75
724.31	1372.50
724.43	1267.50
724.55	1234.25
724.66	1269.50
724.78	1430.75
724.90	1262.75
725.02	1276.75
725.14	1287.25
725.26	1305.50
725.38	1245.50
725.50	1300.00
725.62	1314.75
725.74	1290.75
725.85	1290.25
725.97	1295.00
726.09	1368.50
726.21	1635.00
726.33	1334.75
726.45	1300.00
726.57	1268.00
726.69	1309.50
726.81	1306.50
726.92	1297.75
727.04	1322.25
727.16	1336.50
727.28	1311.75
727.40	1299.00
727.52	1303.25
727.64	1435.00
727.76	1399.50
727.88	1325.25
727.99	1268.50
728.11	1272.50
728.23	1299.50
728.35	1292.00
728.47	1300.25
728.59	1303.75
728.71	1333.50
728.83	1315.00
728.94	1344.00
729.06	1402.25
729.18	1386.00
729.30	1333.50
729.42	1313.75
729.54	1391.50
729.66	1403.75
729.78	1311.50
729.90	1321.00
730.01	1302.00
730.13	1239.50
730.25	1315.50
730.37	1303.50
730.49	1337.00
730.61	1330.00
730.73	1331.25
730.84	1350.75
730.96	1334.25
731.08	1331.50
731.20	1318.25
731.32	1323.75
731.44	1469.50
731.56	1322.25
731.68	1290.00
731.79	1333.50
731.91	1290.75
732.03	1309.00
732.15	1321.00
732.27	1288.25
732.39	1309.25
732.51	1346.50
732.62	1289.50
732.74	1307.25
732.86	1353.50
732.98	1321.25
733.10	1309.50
733.22	1323.75
733.34	1347.50
733.45	1258.00
733.57	1314.25
733.69	1277.50
733.81	1309.75
733.93	1321.00
734.05	1238.75
734.17	1301.75
734.28	1314.25
734.40	1315.50
734.52	1297.25
734.64	1313.25
734.76	1398.25
734.88	1322.75
735.00	1282.75
735.11	1312.25
735.23	1356.75
735.35	1308.25
735.47	1272.00
735.59	1365.75
735.71	1313.00
735.83	1331.75
735.94	1342.75
736.06	1334.00
736.18	1368.75
736.30	1361.00
736.42	1339.50
736.54	1336.50
736.65	1356.75
736.77	1468.25
736.89	1375.75
737.01	1328.25
737.13	1424.50
737.25	1256.25
737.36	1292.00
737.48	1314.25
737.60	1324.50
737.72	1310.75
737.84	1317.25
737.96	1354.00
738.08	1315.25
738.19	1406.75
738.31	1315.75
738.43	1334.75
738.55	1331.00
738.67	1336.00
738.79	1292.75
738.90	1321.50
739.02	1343.50
739.14	1318.75
739.26	1324.00
739.38	1339.50
739.50	1359.00
739.61	1330.75
739.73	1324.00
739.85	1331.50
739.97	1339.00
740.09	1385.25
740.20	1284.75
740.32	1348.25
740.44	1352.50
740.56	1290.75
740.68	1308.25
740.80	1336.75
740.91	1323.75
741.03	1372.00
741.15	1354.25
741.27	1316.75
741.39	1377.25
741.51	1336.75
741.62	1376.00
741.74	1338.25
741.86	1333.25
741.98	1300.00
742.10	1346.50
742.21	1338.50
742.33	1328.00
742.45	1300.25
742.57	1389.25
742.69	1314.50
742.80	1361.50
742.92	1327.00
743.04	1325.00
743.16	1318.50
743.28	1392.75
743.40	1297.50
743.51	1310.25
743.63	1305.50
743.75	1337.50
743.87	1327.75
743.99	1346.25
744.10	1331.50
744.22	1339.75
744.34	1309.25
744.46	1355.25
744.58	1346.25
744.69	1270.75
744.81	1330.75
744.93	1291.25
745.05	1292.25
745.17	1396.25
745.28	1395.25
745.40	1358.00
745.52	1332.25
745.64	1335.50
745.76	1377.25
745.87	1326.25
745.99	1302.00
746.11	1345.75
746.23	1310.25
746.35	1333.00
746.46	1312.25
746.58	1437.75
746.70	1337.25
746.82	1347.00
746.94	1332.50
747.05	1304.75
747.17	1286.00
747.29	1274.00
747.41	1302.75
747.53	1462.00
747.64	1318.00
747.76	1383.25
747.88	1391.00
748.00	1388.75
748.12	1346.25
748.23	1339.00
748.35	1362.75
748.47	1378.25
748.59	1372.50
748.70	1322.00
748.82	1290.75
748.94	1305.50
749.06	1316.50
749.18	1329.50
749.29	1297.00
749.41	1351.75
749.53	1342.00
749.65	1320.75
749.76	1360.00
749.88	1336.75
750.00	1349.50
750.12	1366.75
750.24	1341.00
750.35	1338.00
750.47	1289.00
750.59	1352.25
750.71	1332.50
750.82	1364.00
750.94	1306.25
751.06	1325.00
751.18	1315.25
751.30	1367.50
751.41	1376.50
751.53	1353.75
751.65	1299.50
751.77	1317.00
751.88	1345.00
752.00	1369.00
752.12	1280.25
752.24	1380.25
752.35	1358.25
752.47	1361.75
752.59	1372.25
752.71	1402.50
752.83	1305.00
752.94	1383.00
753.06	1297.75
753.18	1333.25
753.30	1317.75
753.41	1267.50
753.53	1303.75
753.65	1309.00
753.77	1370.75
753.88	1306.25
754.00	1338.25
754.12	1331.75
754.24	1395.00
754.35	1292.75
754.47	1259.75
754.59	1358.00
754.71	1351.00
754.82	1322.00
754.94	1302.25
755.06	1385.00
755.18	1356.50
755.29	1350.00
755.41	1309.00
755.53	1346.75
755.65	1303.00
755.76	1328.50
755.88	1327.75
756.00	1384.75
756.12	1309.25
756.23	1238.00
756.35	1296.50
756.47	1370.00
756.59	1296.75
756.70	1302.50
756.82	1308.50
756.94	1296.50
757.06	1338.50
757.17	1331.00
757.29	1316.25
757.41	1275.75
757.53	1332.75
757.64	1312.25
757.76	1328.25
757.88	1345.25
758.00	1338.50
758.11	1308.00
758.23	1272.25
758.35	1349.50
758.47	1276.50
758.58	1346.75
758.70	1279.50
758.82	1304.50
758.94	1276.75
759.05	1314.25
759.17	1280.25
759.29	1312.25
759.40	1380.50
759.52	1294.75
759.64	1300.50
759.76	1339.00
759.87	1345.25
759.99	1348.00
760.11	1297.25
760.23	1324.50
760.34	1355.50
760.46	1326.25
760.58	1305.75
760.70	1319.50
760.81	1374.00
760.93	1330.50
761.05	1342.50
761.16	1322.25
761.28	1296.25
761.40	1288.50
761.52	1267.50
761.63	1364.25
761.75	1332.50
761.87	1298.00
761.98	1261.00
762.10	1332.00
762.22	1307.75
762.34	1345.25
762.45	1307.75
762.57	1351.00
762.69	1452.75
762.81	1306.50
762.92	1334.25
763.04	1258.00
763.16	1331.00
763.27	1358.25
763.39	1293.00
763.51	1323.25
763.63	1328.75
763.74	1281.75
763.86	1249.25
763.98	1280.00
764.09	1300.50
764.21	1318.00
764.33	1263.50
764.44	1284.00
764.56	1320.25
764.68	1283.25
764.80	1305.25
764.91	1248.50
765.03	1362.00
765.15	1288.75
765.26	1285.00
765.38	1265.25
765.50	1329.00
765.62	1297.25
765.73	1298.75
765.85	1316.50
765.97	1243.50
766.08	1296.75
766.20	1322.00
766.32	1315.25
766.43	1345.50
766.55	1336.00
766.67	1295.25
766.79	1301.50
766.90	1285.50
767.02	1238.00
767.14	1258.00
767.25	1262.25
767.37	1387.75
767.49	1314.25
767.60	1287.75
767.72	1353.50
767.84	1330.25
767.95	1281.00
768.07	1258.75
768.19	1317.50
768.31	1321.50
768.42	1300.75
768.54	1282.25
768.66	1300.50
768.77	1321.50
768.89	1295.00
769.01	1269.25
769.12	1313.75
769.24	1292.50
769.36	1256.00
769.47	1259.25
769.59	1249.00
769.71	1302.50
769.82	1284.50
769.94	1270.75
770.06	1255.50
770.17	1331.00
770.29	1301.75
770.41	1314.25
770.53	1310.25
770.64	1253.75
770.76	1293.75
770.88	1303.75
770.99	1319.25
771.11	1256.50
771.23	1298.50
771.34	1279.75
771.46	1362.50
771.58	1336.50
771.69	1328.50
771.81	1290.00
771.93	1332.25
772.04	1266.75
772.16	1307.50
772.28	1285.25
772.39	1340.00
772.51	1277.75
772.63	1297.25
772.74	1271.25
772.86	1275.00
772.98	1406.50
773.09	1262.25
773.21	1266.00
773.33	1298.25
773.44	1307.25
773.56	1281.00
773.68	1277.75
773.79	1330.75
773.91	1267.75
774.03	1279.50
774.14	1263.75
774.26	1328.50
774.38	1245.50
774.49	1242.00
774.61	1270.50
774.73	1288.50
774.84	1265.50
774.96	1242.75
775.08	1273.00
775.19	1303.25
775.31	1315.50
775.43	1274.75
775.54	1249.50
775.66	1219.25
775.77	1323.50
775.89	1244.75
776.01	1296.50
776.12	1303.50
776.24	1288.75
776.36	1230.50
776.47	1243.75
776.59	1279.50
776.71	1317.50
776.82	1212.25
776.94	1228.75
777.06	1251.50
777.17	1328.75
777.29	1226.50
777.41	1231.50
777.52	1277.50
777.64	1257.50
777.75	1281.00
777.87	1199.75
777.99	1237.00
778.10	1305.75
778.22	1247.75
778.34	1261.00
778.45	1253.50
778.57	1284.25
778.69	1292.75
778.80	1273.75
778.92	1362.00
779.04	1283.75
779.15	1262.00
779.27	1295.75
779.38	1298.25
779.50	1320.50
779.62	1212.00
779.73	1254.75
779.85	1193.50
779.97	1356.50
780.08	1247.25
780.20	1248.50
780.31	1276.00
780.43	1294.50
780.55	1236.00
780.66	1256.25
780.78	1281.00
780.90	1360.75
781.01	1236.50
781.13	1244.00
781.25	1236.25
781.36	1312.25
781.48	1230.75
781.59	1259.25
781.71	1284.25
781.83	1270.25
781.94	1227.00
782.06	1222.00
782.18	1283.00
782.29	1208.50
782.41	1191.00
782.52	1296.50
782.64	1297.75
782.76	1255.75
782.87	1256.75
782.99	1236.50
783.10	1370.25
783.22	1381.75
783.34	1253.50
783.45	1253.25
783.57	1250.50
783.69	1221.25
783.80	1255.75
783.92	1281.50
784.03	1241.00
784.15	1211.25
784.27	1230.50
784.38	1209.75
784.50	1208.25
784.61	1245.50
784.73	1212.50
784.85	1233.25
784.96	1212.00
785.08	1289.25
785.19	1291.50
785.31	1236.50
785.43	1199.75
785.54	1204.50
785.66	1264.25
785.77	1240.50
785.89	1266.50
786.01	1188.75
786.12	1229.25
786.24	1246.00
786.35	1306.25
786.47	1248.00
786.59	1212.00
786.70	1181.75
786.82	1235.75
786.93	1252.75
787.05	1234.50
787.17	1250.50
787.28	1229.00
787.40	1256.75
787.51	1251.25
787.63	1250.25
787.75	1180.75
787.86	1241.50
787.98	1249.00
788.09	1220.75
788.21	1244.00
788.33	1254.50
788.44	1237.00
788.56	1198.00
788.67	1259.25
788.79	1206.25
788.91	1221.50
789.02	1203.25
789.14	1221.50
789.25	1305.50
789.37	1245.50
789.48	1213.00
789.60	1246.50
789.72	1191.50
789.83	1245.00
789.95	1233.25
790.06	1176.50
790.18	1186.00
790.30	1255.75
790.41	1229.25
790.53	1207.50
790.64	1175.50
790.76	1175.00
790.87	1205.50
790.99	1218.25
791.11	1209.25
791.22	1187.00
791.34	1219.75
791.45	1249.00
791.57	1231.50
791.68	1210.75
791.80	1198.50
791.92	1252.50
792.03	1184.25
792.15	1161.25
792.26	1189.75
792.38	1166.50
792.49	1243.25
792.61	1201.50
792.73	1210.75
792.84	1206.75
792.96	1304.00
793.07	1195.50
793.19	2005.75
793.30	1299.50
793.42	1249.00
793.54	1138.00
793.65	1172.00
793.77	1342.00
793.88	1193.25
794.00	1156.25
794.11	1204.50
794.23	1148.25
794.34	1207.50
794.46	1144.00
794.58	1147.75
794.69	1284.75
794.81	1275.25
794.92	1158.00
795.04	1155.00
795.15	1283.50
795.27	1240.75
795.39	1197.50
795.50	1169.25
795.62	1159.50
795.73	1170.00
795.85	1168.25
795.96	1201.75
796.08	1251.75
796.19	1167.75
796.31	1173.75
796.42	1141.50
796.54	1165.75
796.66	1238.25
796.77	1148.50
796.89	1139.75
797.00	1235.25
797.12	1107.75
797.23	1172.00
797.35	1195.00
797.46	1225.00
797.58	1253.25
797.69	1203.25
797.81	1182.00
797.93	1167.25
798.04	1164.00
798.16	1150.25
798.27	1189.50
798.39	1154.25
798.50	1137.00
798.62	1134.50
798.73	1138.75
798.85	1262.50
798.96	1194.75
799.08	1198.50
799.19	1216.25
799.31	1188.50
799.43	1177.75
799.54	1164.00
799.66	1192.25
799.77	1209.50
799.89	1152.25
800.00	1122.25
800.12	1159.00
800.23	1218.25
800.35	1255.25
800.46	1106.25
800.58	1096.00
800.69	1168.25
800.81	1152.00
800.92	1125.00
801.04	1168.50
801.16	1103.25
801.27	1118.00
801.39	1129.75
801.50	1146.50
801.62	1162.50
801.73	1208.75
801.85	1208.25
801.96	1119.25
802.08	1207.00
802.19	1219.75
802.31	1157.50
802.42	1169.25
802.54	1239.25
802.65	1224.00
802.77	1138.25
802.88	1190.25
803.00	1108.25
803.11	1261.75
803.23	1164.75
803.34	1160.50
803.46	1193.50
803.57	1110.75
803.69	1189.00
803.80	1107.75
803.92	1200.50
804.03	1143.25
804.15	1166.75
804.26	1188.75
804.38	1202.75
804.50	1133.25
804.61	1177.25
804.73	1152.25
804.84	1164.75
804.96	1078.75
805.07	1140.25
805.19	1111.75
805.30	1170.25
805.42	1202.00
805.53	1153.00
805.65	1120.25
805.76	1105.50
805.88	1120.75
805.99	1150.75
806.11	1157.75
806.22	1102.75
806.34	1117.50
806.45	1135.25
806.57	1111.00
806.68	1163.75
806.80	1062.75
806.91	1097.50
807.03	1086.75
807.14	1062.00
807.26	1069.25
807.37	1062.50
807.49	1124.75
807.60	1102.00
807.72	1182.50
807.83	1204.75
807.95	1135.00
808.06	1127.50
808.17	1130.75
808.29	1146.75
808.40	1081.00
808.52	1111.75
808.63	1119.00
808.75	1120.50
808.86	1100.75
808.98	1116.00
809.09	1069.50
809.21	1107.75
809.32	1064.25
809.44	1122.00
809.55	1051.25
809.67	1100.50
809.78	1048.75
809.90	1115.50
810.01	1144.25
810.13	1056.00
810.24	1102.25
810.36	1021.50
810.47	1098.25
810.59	1078.75
810.70	1094.50
810.82	1116.25
810.93	1026.50
811.05	1036.00
811.16	1050.50
811.27	1043.00
811.39	1060.25
811.50	1101.25
811.62	999.25
811.73	979.25
811.85	1064.25
811.96	1064.00
812.08	1075.25
812.19	1059.75
812.31	1077.50
812.42	1039.50
812.54	1017.50
812.65	1075.75
812.77	1089.25
812.88	1068.75
813.00	1070.00
813.11	1062.25
813.22	1003.50
813.34	1007.25
813.45	1035.75
813.57	1113.50
813.68	1110.75
813.80	1034.50
813.91	997.75
814.03	1013.00
814.14	1099.25
814.26	999.25
814.37	1014.50
814.49	1013.00
814.60	987.25
814.71	980.75
814.83	1001.00
814.94	953.75
815.06	990.00
815.17	996.00
815.29	992.75
815.40	953.00
815.52	1078.00
815.63	978.50
815.75	975.75
815.86	1001.00
815.97	945.25
816.09	977.50
816.20	995.00
816.32	1004.25
816.43	932.00
816.55	984.75
816.66	960.50
816.78	1061.75
816.89	974.50
817.00	971.75
817.12	947.50
817.23	929.75
817.35	1006.75
817.46	967.50
817.58	929.00
817.69	1049.75
817.81	955.25
817.92	988.75
818.03	966.25
818.15	963.75
818.26	918.75
818.38	911.75
818.49	937.00
818.61	959.00
818.72	912.50
818.83	1963.50
818.95	1077.75
819.06	923.00
819.18	925.75
819.29	948.00
819.41	932.50
819.52	948.00
819.64	946.25
819.75	907.25
819.86	887.00
819.98	903.50
820.09	949.00
820.21	933.50
820.32	890.50
820.44	955.50
820.55	1002.75
820.66	900.25
820.78	948.50
820.89	907.50
821.01	932.25
821.12	917.25
821.23	921.50
821.35	892.00
821.46	951.00
821.58	906.75
821.69	895.00
821.81	881.25
821.92	960.75
822.03	894.75
822.15	912.25
822.26	862.75
822.38	867.25
822.49	915.00
822.61	908.00
822.72	907.00
822.83	940.50
822.95	892.25
823.06	894.50
823.18	940.25
823.29	960.50
823.40	904.25
823.52	878.00
823.63	840.25
823.75	966.25
823.86	878.00
823.97	825.00
824.09	903.00
824.20	838.25
824.32	880.50
824.43	864.50
824.55	912.25
824.66	963.75
824.77	857.00
824.89	880.50
825.00	934.75
825.12	886.00
825.23	897.50
825.34	817.00
825.46	828.25
825.57	900.25
825.69	841.00
825.80	785.50
825.91	821.25
826.03	802.00
826.14	871.50
826.26	815.50
826.37	847.75
826.48	828.00
826.60	859.50
826.71	817.50
826.83	855.00
826.94	871.50
827.05	888.50
827.17	875.25
827.28	831.50
827.39	815.75
827.51	803.25
827.62	825.75
827.74	833.00
827.85	823.00
827.96	819.00
828.08	836.00
828.19	924.50
828.31	823.75
828.42	783.75
828.53	850.50
828.65	878.75
828.76	881.50
828.87	852.00
828.99	801.25
