Wavelength (nm)	Intensity
377.35	811.25
377.48	592.25
377.62	618.75
377.75	612.00
377.88	825.75
378.02	804.75
378.15	816.25
378.28	779.00
378.41	854.25
378.55	821.75
378.68	806.50
378.81	794.00
378.95	817.75
379.08	814.25
379.21	769.25
379.35	830.25
379.48	830.75
379.61	879.50
379.74	806.75
379.88	794.25
380.01	872.00
380.14	927.00
380.28	845.00
380.41	777.00
380.54	832.75
380.68	834.75
380.81	751.00
380.94	836.25
381.07	880.50
381.21	881.25
381.34	800.75
381.47	752.50
381.61	950.50
381.74	816.75
381.87	780.50
382.00	832.50
382.14	899.00
382.27	853.00
382.40	784.75
382.54	882.50
382.67	877.00
382.80	777.50
382.93	783.00
383.07	814.25
383.20	813.75
383.33	843.00
383.47	792.00
383.60	760.75
383.73	954.75
383.86	844.00
384.00	801.25
384.13	795.25
384.26	843.00
384.40	858.25
384.53	812.50
384.66	864.50
384.79	830.25
384.93	799.50
385.06	798.25
385.19	815.00
385.33	918.25
385.46	852.25
385.59	792.25
385.72	834.50
385.86	775.00
385.99	798.25
386.12	799.00
386.25	783.50
386.39	848.75
386.52	874.75
386.65	810.00
386.79	801.25
386.92	785.25
387.05	889.00
387.18	764.00
387.32	788.50
387.45	847.00
387.58	818.75
387.71	791.25
387.85	791.25
387.98	827.75
388.11	842.50
388.25	828.50
388.38	808.25
388.51	859.00
388.64	858.75
388.78	793.50
388.91	775.25
389.04	809.50
389.17	920.75
389.31	819.25
389.44	833.50
389.57	875.00
389.70	839.00
389.84	801.00
389.97	783.25
390.10	794.75
390.24	843.00
390.37	805.75
390.50	792.50
390.63	875.50
390.77	821.00
390.90	823.25
391.03	808.75
391.16	772.50
391.30	795.25
391.43	797.50
391.56	792.75
391.69	778.25
391.83	858.75
391.96	825.75
392.09	799.50
392.22	899.50
392.36	837.00
392.49	787.75
392.62	800.75
392.75	832.50
392.89	878.00
393.02	782.75
393.15	773.50
393.28	771.50
393.42	901.25
393.55	760.75
393.68	794.25
393.81	745.75
393.95	799.25
394.08	791.00
394.21	793.75
394.34	849.75
394.48	843.50
394.61	846.50
394.74	820.75
394.87	858.25
395.01	830.25
395.14	839.75
395.27	792.00
395.40	905.00
395.54	906.25
395.67	811.25
395.80	798.25
395.93	839.25
396.07	790.25
396.20	781.25
396.33	744.25
396.46	790.00
396.59	803.75
396.73	802.25
396.86	785.50
396.99	859.25
397.12	822.75
397.26	815.75
397.39	805.50
397.52	1096.00
397.65	916.25
397.79	814.50
397.92	797.50
398.05	859.00
398.18	790.25
398.32	797.75
398.45	828.75
398.58	838.00
398.71	841.25
398.84	775.50
398.98	808.50
399.11	837.50
399.24	831.00
399.37	795.25
399.51	777.50
399.64	811.50
399.77	814.25
399.90	806.00
400.03	804.75
400.17	773.00
400.30	882.25
400.43	846.75
400.56	816.00
400.70	816.00
400.83	794.50
400.96	781.50
401.09	815.75
401.23	817.50
401.36	874.75
401.49	799.75
401.62	811.50
401.75	807.25
401.89	788.75
402.02	782.50
402.15	808.75
402.28	827.25
402.41	814.25
402.55	789.25
402.68	804.25
402.81	878.00
402.94	852.00
403.08	784.50
403.21	774.75
403.34	853.50
403.47	834.25
403.60	806.50
403.74	837.50
403.87	857.25
404.00	794.00
404.13	793.00
404.26	771.25
404.40	776.50
404.53	820.75
404.66	801.00
404.79	772.50
404.93	849.25
405.06	826.75
405.19	766.25
405.32	825.50
405.45	836.00
405.59	851.00
405.72	814.75
405.85	791.50
405.98	984.00
406.11	780.25
406.25	782.00
406.38	798.25
406.51	842.25
406.64	810.00
406.77	764.75
406.91	773.50
407.04	834.75
407.17	799.50
407.30	815.50
407.43	802.75
407.57	883.00
407.70	871.25
407.83	780.25
407.96	812.25
408.09	772.00
408.23	900.50
408.36	818.00
408.49	800.00
408.62	927.00
408.75	824.25
408.89	782.75
409.02	837.00
409.15	808.50
409.28	902.50
409.41	840.50
409.55	786.25
409.68	926.75
409.81	822.00
409.94	779.00
410.07	824.00
410.20	825.50
410.34	805.50
410.47	809.50
410.60	819.25
410.73	844.75
410.86	780.75
411.00	815.00
411.13	784.25
411.26	817.00
411.39	819.75
411.52	835.50
411.66	800.25
411.79	791.50
411.92	783.25
412.05	801.75
412.18	795.50
412.31	838.00
412.45	863.75
412.58	851.25
412.71	775.50
412.84	824.50
412.97	890.50
413.11	819.25
413.24	836.00
413.37	857.50
413.50	913.00
413.63	829.00
413.76	802.75
413.90	850.75
414.03	798.75
414.16	792.50
414.29	833.00
414.42	811.00
414.56	911.75
414.69	797.00
414.82	803.75
414.95	806.75
415.08	831.50
415.21	812.25
415.35	832.25
415.48	744.00
415.61	858.00
415.74	862.50
415.87	770.75
416.00	823.25
416.14	925.00
416.27	827.25
416.40	782.50
416.53	811.75
416.66	841.75
416.79	815.25
416.93	783.75
417.06	835.25
417.19	821.50
417.32	803.00
417.45	796.25
417.58	772.00
417.72	857.75
417.85	792.50
417.98	807.00
418.11	838.50
418.24	782.50
418.37	797.75
418.51	815.50
418.64	824.25
418.77	889.75
418.90	827.75
419.03	778.50
419.16	839.75
419.29	860.25
419.43	791.50
419.56	775.25
419.69	925.75
419.82	865.00
419.95	813.25
420.08	851.25
420.22	876.25
420.35	934.75
420.48	855.25
420.61	800.00
420.74	758.25
420.87	851.75
421.00	776.25
421.14	807.50
421.27	854.75
421.40	890.00
421.53	834.25
421.66	820.50
421.79	811.25
421.93	818.00
422.06	815.00
422.19	797.25
422.32	864.25
422.45	862.50
422.58	824.50
422.71	797.25
422.85	858.25
422.98	858.25
423.11	769.00
423.24	756.00
423.37	781.00
423.50	786.00
423.63	816.50
423.77	788.75
423.90	784.75
424.03	834.50
424.16	840.75
424.29	813.25
424.42	762.25
424.55	781.25
424.69	775.25
424.82	810.25
424.95	824.75
425.08	784.25
425.21	833.00
425.34	793.00
425.47	815.50
425.60	826.00
425.74	766.75
425.87	787.00
426.00	808.00
426.13	819.25
426.26	781.50
426.39	783.50
426.52	802.50
426.66	882.75
426.79	843.00
426.92	790.50
427.05	910.50
427.18	869.00
427.31	807.25
427.44	806.25
427.57	783.00
427.71	816.50
427.84	779.50
427.97	810.50
428.10	869.25
428.23	817.00
428.36	788.75
428.49	727.00
428.62	937.25
428.76	910.75
428.89	818.50
429.02	768.25
429.15	807.25
429.28	913.00
429.41	791.25
429.54	802.50
429.67	801.00
429.81	841.75
429.94	814.25
430.07	796.50
430.20	854.75
430.33	872.50
430.46	780.25
430.59	771.75
430.72	816.25
430.85	762.25
430.99	801.75
431.12	775.00
431.25	871.25
431.38	883.50
431.51	813.75
431.64	808.25
431.77	896.00
431.90	884.50
432.03	810.25
432.17	786.25
432.30	827.75
432.43	846.50
432.56	823.75
432.69	838.00
432.82	825.25
432.95	867.50
433.08	813.00
433.21	816.25
433.35	805.25
433.48	811.50
433.61	776.25
433.74	809.25
433.87	787.50
434.00	843.75
434.13	788.25
434.26	841.50
434.39	836.50
434.53	846.00
434.66	806.25
434.79	800.50
434.92	792.00
435.05	877.00
435.18	790.50
435.31	833.00
435.44	866.00
435.57	821.75
435.70	801.25
435.84	780.50
435.97	881.75
436.10	927.25
436.23	803.00
436.36	787.00
436.49	799.50
436.62	832.00
436.75	805.00
436.88	832.50
437.01	794.00
437.14	781.25
437.28	762.00
437.41	792.25
437.54	879.75
437.67	847.25
437.80	788.00
437.93	775.00
438.06	936.00
438.19	863.00
438.32	765.00
438.45	777.25
438.58	840.50
438.72	896.00
438.85	856.75
438.98	798.50
439.11	831.75
439.24	879.75
439.37	864.25
439.50	835.75
439.63	868.50
439.76	801.00
439.89	786.50
440.02	794.00
440.15	836.25
440.29	873.50
440.42	807.00
440.55	806.25
440.68	902.00
440.81	947.25
440.94	826.25
441.07	802.00
441.20	898.75
441.33	832.00
441.46	804.00
441.59	789.75
441.72	804.75
441.85	822.25
441.99	845.75
442.12	849.00
442.25	904.50
442.38	839.50
442.51	833.00
442.64	769.00
442.77	811.00
442.90	798.75
443.03	769.25
443.16	795.75
443.29	832.50
443.42	892.00
443.55	800.75
443.68	818.00
443.82	768.25
443.95	801.50
444.08	797.25
444.21	807.75
444.34	780.50
444.47	805.25
444.60	807.75
444.73	824.00
444.86	824.50
444.99	883.75
445.12	834.25
445.25	824.50
445.38	835.50
445.51	859.50
445.64	824.00
445.78	789.75
445.91	763.50
446.04	932.75
446.17	859.50
446.30	762.00
446.43	828.50
446.56	814.75
446.69	779.25
446.82	791.75
446.95	857.25
447.08	866.75
447.21	821.00
447.34	793.50
447.47	866.25
447.60	855.25
447.73	814.25
447.86	848.00
447.99	812.00
448.13	835.50
448.26	848.75
448.39	800.75
448.52	849.50
448.65	864.75
448.78	814.50
448.91	802.25
449.04	839.75
449.17	806.00
449.30	838.75
449.43	829.25
449.56	824.50
449.69	879.50
449.82	816.25
449.95	771.75
450.08	868.25
450.21	834.00
450.34	809.50
450.47	809.75
450.60	858.25
450.73	826.00
450.87	804.50
451.00	817.25
451.13	854.00
451.26	965.25
451.39	801.25
451.52	830.25
451.65	810.75
451.78	804.50
451.91	789.25
452.04	784.25
452.17	902.75
452.30	899.00
452.43	805.25
452.56	799.00
452.69	859.75
452.82	784.00
452.95	850.75
453.08	784.00
453.21	745.75
453.34	866.50
453.47	784.75
453.60	861.50
453.73	916.00
453.86	845.25
453.99	830.25
454.12	828.75
454.25	811.75
454.38	828.75
454.52	781.75
454.65	789.50
454.78	788.50
454.91	767.75
455.04	789.75
455.17	779.75
455.30	780.00
455.43	879.75
455.56	803.25
455.69	766.75
455.82	836.75
455.95	822.75
456.08	770.25
456.21	778.50
456.34	763.50
456.47	748.50
456.60	790.75
456.73	783.75
456.86	808.75
456.99	842.25
457.12	780.50
457.25	788.25
457.38	870.00
457.51	859.75
457.64	823.50
457.77	795.00
457.90	808.00
458.03	798.50
458.16	795.50
458.29	800.75
458.42	814.00
458.55	756.75
458.68	785.25
458.81	799.75
458.94	886.25
459.07	918.00
459.20	776.00
459.33	785.50
459.46	871.25
459.59	904.25
459.72	866.25
459.85	804.50
459.98	885.00
460.11	848.75
460.24	812.50
460.37	778.00
460.50	855.75
460.63	828.75
460.76	799.75
460.89	812.50
461.02	831.75
461.15	849.00
461.28	808.75
461.41	798.00
461.54	887.00
461.67	784.00
461.80	815.00
461.93	856.75
462.06	841.25
462.19	866.00
462.32	799.75
462.45	786.00
462.58	842.50
462.71	799.25
462.84	806.75
462.97	754.75
463.10	808.75
463.23	821.00
463.36	846.25
463.49	817.00
463.62	767.00
463.75	831.25
463.88	796.75
464.01	801.00
464.14	775.50
464.27	908.25
464.40	804.25
464.53	801.00
464.66	844.75
464.79	837.25
464.92	816.75
465.05	787.25
465.18	802.75
465.31	815.00
465.44	804.25
465.57	787.00
465.70	801.75
465.83	919.50
465.96	818.75
466.09	789.25
466.22	851.50
466.35	838.00
466.48	789.25
466.61	792.75
466.74	808.00
466.87	855.50
467.00	839.50
467.13	833.50
467.26	849.50
467.39	766.00
467.52	763.50
467.65	801.50
467.78	884.50
467.91	818.50
468.04	819.25
468.17	788.25
468.30	802.00
468.43	767.25
468.56	789.50
468.69	822.00
468.82	841.00
468.95	773.25
469.08	799.00
469.21	805.75
469.34	847.25
469.47	922.00
469.60	890.50
469.73	828.00
469.86	830.50
469.99	858.00
470.11	784.75
470.24	793.25
470.37	855.00
470.50	822.00
470.63	796.00
470.76	806.75
470.89	845.75
471.02	925.00
471.15	799.75
471.28	807.25
471.41	911.75
471.54	840.75
471.67	797.00
471.80	743.00
471.93	855.00
472.06	830.00
472.19	795.25
472.32	781.50
472.45	916.50
472.58	868.25
472.71	819.00
472.84	789.50
472.97	789.50
473.10	769.50
473.23	850.50
473.36	763.00
473.49	882.75
473.62	859.25
473.74	828.25
473.87	851.50
474.00	785.75
474.13	786.75
474.26	816.50
474.39	839.00
474.52	810.00
474.65	800.50
474.78	815.00
474.91	766.50
475.04	835.00
475.17	927.25
475.30	835.25
475.43	827.00
475.56	878.00
475.69	814.25
475.82	836.25
475.95	783.00
476.08	881.50
476.21	821.75
476.34	852.25
476.46	846.00
476.59	882.00
476.72	801.75
476.85	807.75
476.98	780.75
477.11	864.50
477.24	807.50
477.37	758.75
477.50	795.50
477.63	822.75
477.76	777.25
477.89	746.75
478.02	774.75
478.15	808.50
478.28	802.50
478.41	833.75
478.54	792.00
478.66	855.25
478.79	803.25
478.92	803.00
479.05	804.25
479.18	821.75
479.31	786.50
479.44	787.25
479.57	787.50
479.70	798.75
479.83	825.00
479.96	791.25
480.09	827.75
480.22	948.50
480.35	929.75
480.48	859.25
480.60	826.75
480.73	800.50
480.86	834.00
480.99	793.00
481.12	794.00
481.25	817.50
481.38	885.75
481.51	806.00
481.64	813.25
481.77	839.75
481.90	805.75
482.03	816.50
482.16	798.75
482.29	878.50
482.41	818.50
482.54	840.00
482.67	793.50
482.80	823.25
482.93	863.25
483.06	783.00
483.19	877.00
483.32	852.75
483.45	812.75
483.58	820.75
483.71	836.75
483.84	846.00
483.97	840.00
484.09	813.50
484.22	799.25
484.35	787.75
484.48	768.00
484.61	787.25
484.74	798.00
484.87	826.75
485.00	775.25
485.13	830.50
485.26	778.50
485.39	840.50
485.52	815.50
485.64	883.25
485.77	844.25
485.90	856.75
486.03	772.25
486.16	827.25
486.29	773.75
486.42	806.50
486.55	832.00
486.68	801.75
486.81	843.00
486.94	826.75
487.06	802.75
487.19	848.25
487.32	837.00
487.45	822.25
487.58	795.75
487.71	810.75
487.84	768.50
487.97	849.75
488.10	857.75
488.23	798.75
488.35	768.50
488.48	805.25
488.61	769.00
488.74	802.50
488.87	795.50
489.00	819.50
489.13	904.75
489.26	844.00
489.39	846.25
489.52	849.25
489.64	848.75
489.77	814.75
489.90	816.75
490.03	805.50
490.16	802.50
490.29	796.00
490.42	792.50
490.55	828.50
490.68	783.75
490.81	798.50
490.93	766.00
491.06	876.25
491.19	842.00
491.32	831.75
491.45	844.75
491.58	776.25
491.71	816.25
491.84	791.25
491.97	790.50
492.09	871.75
492.22	844.00
492.35	821.25
492.48	843.50
492.61	817.50
492.74	822.75
492.87	831.25
493.00	819.50
493.12	790.00
493.25	814.00
493.38	807.75
493.51	781.50
493.64	767.00
493.77	804.75
493.90	831.75
494.03	840.00
494.16	871.50
494.28	883.75
494.41	811.50
494.54	810.00
494.67	931.75
494.80	886.00
494.93	814.50
495.06	835.25
495.19	847.00
495.31	821.00
495.44	798.25
495.57	783.75
495.70	840.50
495.83	809.25
495.96	782.00
496.09	817.50
496.22	882.75
496.34	911.50
496.47	810.25
496.60	835.25
496.73	866.50
496.86	862.00
496.99	785.75
497.12	815.00
497.24	762.75
497.37	829.75
497.50	799.75
497.63	784.75
497.76	808.50
497.89	876.75
498.02	843.50
498.15	741.25
498.27	822.25
498.40	864.00
498.53	886.25
498.66	836.75
498.79	865.25
498.92	780.75
499.05	822.25
499.17	815.00
499.30	854.25
499.43	902.00
499.56	840.75
499.69	765.25
499.82	832.50
499.95	797.50
500.07	795.25
500.20	821.50
500.33	853.25
500.46	951.00
500.59	827.75
500.72	837.25
500.85	876.50
500.97	871.00
501.10	866.50
501.23	785.75
501.36	834.00
501.49	892.25
501.62	840.00
501.75	823.25
501.87	871.25
502.00	768.75
502.13	840.50
502.26	823.25
502.39	805.25
502.52	803.75
502.64	767.25
502.77	792.50
502.90	845.00
503.03	824.50
503.16	804.50
503.29	798.50
503.42	866.00
503.54	818.00
503.67	816.00
503.80	835.25
503.93	862.50
504.06	784.50
504.19	815.00
504.31	871.25
504.44	838.25
504.57	839.00
504.70	828.75
504.83	772.50
504.96	828.50
505.08	819.50
505.21	823.25
505.34	919.50
505.47	869.25
505.60	851.25
505.73	862.00
505.85	862.50
505.98	953.75
506.11	825.00
506.24	786.00
506.37	791.00
506.50	822.25
506.62	857.00
506.75	805.00
506.88	793.50
507.01	836.25
507.14	773.00
507.27	815.00
507.39	789.75
507.52	795.75
507.65	793.00
507.78	837.75
507.91	789.00
508.04	875.50
508.16	864.50
508.29	828.75
508.42	805.25
508.55	796.00
508.68	800.50
508.81	863.50
508.93	792.25
509.06	798.00
509.19	851.00
509.32	840.50
509.45	827.00
509.57	828.25
509.70	784.75
509.83	822.00
509.96	782.75
510.09	819.25
510.22	810.00
510.34	814.25
510.47	812.75
510.60	916.50
510.73	836.75
510.86	838.00
510.98	800.75
511.11	802.75
511.24	871.25
511.37	847.50
511.50	804.50
511.63	828.00
511.75	821.00
511.88	818.50
512.01	839.25
512.14	829.25
512.27	836.00
512.39	814.25
512.52	803.25
512.65	835.00
512.78	780.50
512.91	822.75
513.03	825.00
513.16	862.50
513.29	826.25
513.42	801.75
513.55	780.00
513.67	836.25
513.80	772.50
513.93	791.00
514.06	805.00
514.19	837.75
514.31	840.25
514.44	855.75
514.57	802.25
514.70	826.50
514.83	877.25
514.95	802.75
515.08	830.25
515.21	853.50
515.34	832.75
515.47	819.00
515.59	789.75
515.72	834.50
515.85	844.50
515.98	870.25
516.11	829.25
516.23	849.75
516.36	879.25
516.49	833.00
516.62	822.50
516.75	876.25
516.87	875.00
517.00	794.25
517.13	853.00
517.26	873.00
517.39	845.75
517.51	765.25
517.64	824.00
517.77	896.25
517.90	794.00
518.02	812.25
518.15	789.00
518.28	742.00
518.41	825.00
518.54	823.00
518.66	823.25
518.79	785.00
518.92	799.75
519.05	792.00
519.18	817.75
519.30	847.50
519.43	773.25
519.56	791.25
519.69	791.50
519.81	860.00
519.94	804.00
520.07	751.50
520.20	798.50
520.33	830.25
520.45	872.00
520.58	825.00
520.71	843.75
520.84	859.00
520.96	844.25
521.09	811.00
521.22	793.50
521.35	855.00
521.48	856.00
521.60	797.75
521.73	817.25
521.86	870.75
521.99	896.25
522.11	830.25
522.24	819.00
522.37	843.25
522.50	825.25
522.62	873.50
522.75	761.00
522.88	834.50
523.01	796.50
523.14	844.75
523.26	831.25
523.39	879.00
523.52	795.25
523.65	907.25
523.77	856.75
523.90	818.50
524.03	812.75
524.16	806.50
524.28	806.25
524.41	803.75
524.54	813.00
524.67	777.00
524.79	803.00
524.92	838.25
525.05	892.75
525.18	788.25
525.31	858.50
525.43	784.50
525.56	931.25
525.69	801.50
525.82	751.25
525.94	860.25
526.07	860.00
526.20	844.50
526.33	868.00
526.45	944.00
526.58	915.25
526.71	834.50
526.84	817.75
526.96	832.25
527.09	799.25
527.22	805.25
527.35	806.25
527.47	778.50
527.60	892.50
527.73	787.00
527.86	853.50
527.98	839.25
528.11	850.75
528.24	792.25
528.37	811.00
528.49	780.75
528.62	820.50
528.75	854.00
528.88	794.25
529.00	850.00
529.13	871.25
529.26	825.75
529.39	843.00
529.51	952.25
529.64	922.75
529.77	799.25
529.90	806.50
530.02	816.00
530.15	789.00
530.28	755.75
530.40	790.50
530.53	818.50
530.66	836.25
530.79	803.00
530.91	818.75
531.04	801.50
531.17	815.75
531.30	814.50
531.42	813.00
531.55	827.25
531.68	881.00
531.81	790.75
531.93	817.00
532.06	829.75
532.19	781.50
532.31	806.75
532.44	803.00
532.57	839.75
532.70	798.25
532.82	826.50
532.95	843.00
533.08	882.75
533.21	850.00
533.33	790.75
533.46	792.00
533.59	804.75
533.71	929.75
533.84	834.25
533.97	800.75
534.10	798.00
534.22	779.00
534.35	813.25
534.48	823.00
534.61	852.50
534.73	754.00
534.86	791.75
534.99	830.75
535.11	864.00
535.24	833.50
535.37	790.50
535.50	780.75
535.62	785.25
535.75	879.25
535.88	828.50
536.00	792.00
536.13	800.00
536.26	806.50
536.39	795.00
536.51	774.00
536.64	831.00
536.77	816.75
536.89	809.00
537.02	822.75
537.15	842.00
537.28	824.25
537.40	839.75
537.53	804.00
537.66	864.50
537.78	825.00
537.91	792.50
538.04	805.00
538.17	854.50
538.29	836.25
538.42	880.75
538.55	875.25
538.67	840.50
538.80	795.75
538.93	834.75
539.05	822.00
539.18	891.00
539.31	852.25
539.44	825.25
539.56	739.50
539.69	803.25
539.82	807.00
539.94	810.00
540.07	785.25
540.20	882.50
540.32	795.25
540.45	812.75
540.58	809.50
540.71	861.00
540.83	761.00
540.96	798.50
541.09	804.00
541.21	893.25
541.34	882.75
541.47	791.75
541.59	826.75
541.72	893.00
541.85	966.50
541.98	874.00
542.10	819.00
542.23	837.75
542.36	924.25
542.48	827.00
542.61	818.00
542.74	781.50
542.86	802.50
542.99	809.25
543.12	791.50
543.24	821.75
543.37	759.00
543.50	808.00
543.62	791.50
543.75	812.25
543.88	800.50
544.01	826.00
544.13	839.00
544.26	848.00
544.39	789.50
544.51	787.75
544.64	779.25
544.77	838.25
544.89	796.75
545.02	818.50
545.15	790.25
545.27	902.25
545.40	874.50
545.53	840.25
545.65	833.00
545.78	743.75
545.91	773.50
546.03	809.75
546.16	817.75
546.29	795.50
546.41	770.75
546.54	804.00
546.67	786.25
546.79	851.50
546.92	885.25
547.05	774.50
547.17	821.25
547.30	794.25
547.43	845.25
547.56	779.00
547.68	807.00
547.81	765.25
547.94	839.50
548.06	800.25
548.19	781.00
548.32	874.75
548.44	822.25
548.57	834.50
548.70	847.75
548.82	855.75
548.95	842.75
549.08	804.00
549.20	806.00
549.33	906.25
549.45	824.50
549.58	800.50
549.71	771.00
549.83	862.50
549.96	776.00
550.09	822.75
550.21	804.25
550.34	825.75
550.47	803.25
550.59	796.75
550.72	733.50
550.85	808.75
550.97	871.00
551.10	791.50
551.23	804.75
551.35	878.75
551.48	835.00
551.61	804.75
551.73	797.75
551.86	885.25
551.99	876.00
552.11	818.50
552.24	850.75
552.37	827.00
552.49	797.25
552.62	799.00
552.75	848.75
552.87	792.75
553.00	799.00
553.12	822.75
553.25	800.75
553.38	836.50
553.50	860.75
553.63	809.50
553.76	750.50
553.88	809.00
554.01	808.25
554.14	812.75
554.26	837.00
554.39	889.75
554.52	817.00
554.64	812.00
554.77	792.25
554.89	846.25
555.02	859.75
555.15	825.00
555.27	808.75
555.40	816.50
555.53	867.25
555.65	801.25
555.78	773.25
555.91	840.50
556.03	882.50
556.16	780.00
556.29	817.50
556.41	878.25
556.54	872.25
556.66	815.25
556.79	792.25
556.92	819.75
557.04	823.00
557.17	794.00
557.30	798.75
557.42	800.25
557.55	811.75
557.67	824.75
557.80	808.25
557.93	818.25
558.05	822.50
558.18	780.50
558.31	820.25
558.43	860.75
558.56	834.50
558.68	812.00
558.81	786.75
558.94	806.00
559.06	920.25
559.19	806.50
559.32	798.50
559.44	778.00
559.57	814.00
559.69	776.75
559.82	782.00
559.95	784.25
560.07	797.75
560.20	740.75
560.33	815.75
560.45	825.50
560.58	760.25
560.70	811.50
560.83	768.25
560.96	805.00
561.08	802.25
561.21	828.25
561.33	773.00
561.46	753.25
561.59	845.50
561.71	790.25
561.84	816.75
561.97	773.25
562.09	845.00
562.22	787.25
562.34	785.75
562.47	837.75
562.60	825.25
562.72	800.75
562.85	806.50
562.97	805.50
563.10	796.25
563.23	773.00
563.35	781.00
563.48	817.50
563.60	811.25
563.73	837.75
563.86	758.75
563.98	790.50
564.11	814.25
564.23	804.25
564.36	868.00
564.49	805.50
564.61	863.75
564.74	816.00
564.86	785.00
564.99	864.25
565.12	840.00
565.24	861.00
565.37	841.75
565.49	855.25
565.62	874.25
565.75	848.25
565.87	779.25
566.00	946.50
566.12	863.25
566.25	818.50
566.38	849.50
566.50	814.00
566.63	856.00
566.75	801.50
566.88	779.00
567.01	778.00
567.13	804.00
567.26	799.50
567.38	791.25
567.51	851.00
567.64	786.50
567.76	828.75
567.89	824.75
568.01	774.25
568.14	763.75
568.26	805.00
568.39	816.00
568.52	810.00
568.64	842.75
568.77	794.50
568.89	787.50
569.02	793.50
569.15	803.75
569.27	797.25
569.40	824.25
569.52	834.50
569.65	801.25
569.77	804.25
569.90	750.50
570.03	762.50
570.15	873.50
570.28	805.00
570.40	801.00
570.53	799.25
570.66	860.00
570.78	852.25
570.91	815.00
571.03	764.50
571.16	806.50
571.28	765.00
571.41	744.25
571.54	761.25
571.66	749.50
571.79	777.25
571.91	789.00
572.04	761.25
572.16	812.00
572.29	833.25
572.42	786.25
572.54	818.75
572.67	776.25
572.79	815.50
572.92	802.00
573.04	838.50
573.17	849.00
573.29	826.75
573.42	792.25
573.55	832.75
573.67	825.00
573.80	800.75
573.92	775.75
574.05	812.00
574.17	856.00
574.30	810.75
574.43	797.50
574.55	788.50
574.68	807.75
574.80	791.00
574.93	791.25
575.05	757.25
575.18	791.25
575.30	798.75
575.43	835.00
575.56	853.50
575.68	823.25
575.81	791.75
575.93	775.25
576.06	829.25
576.18	838.00
576.31	797.50
576.43	780.25
576.56	885.50
576.69	873.50
576.81	820.50
576.94	793.25
577.06	810.00
577.19	840.75
577.31	815.75
577.44	825.00
577.56	852.50
577.69	825.00
577.82	807.00
577.94	777.25
578.07	751.75
578.19	827.50
578.32	833.75
578.44	786.25
578.57	798.50
578.69	849.00
578.82	814.00
578.94	844.00
579.07	854.00
579.19	850.75
579.32	824.00
579.45	827.25
579.57	807.75
579.70	776.50
579.82	824.75
579.95	795.25
580.07	874.00
580.20	801.00
580.32	801.00
580.45	838.75
580.57	834.25
580.70	810.00
580.82	831.75
580.95	833.75
581.08	766.25
581.20	847.50
581.33	801.75
581.45	824.50
581.58	815.00
581.70	824.25
581.83	732.25
581.95	822.75
582.08	834.25
582.20	806.75
582.33	808.50
582.45	787.50
582.58	798.50
582.70	825.75
582.83	783.00
582.95	808.75
583.08	851.00
583.21	851.75
583.33	817.00
583.46	787.00
583.58	762.50
583.71	844.00
583.83	826.00
583.96	820.50
584.08	844.50
584.21	841.50
584.33	833.75
584.46	802.25
584.58	772.00
584.71	836.00
584.83	837.00
584.96	809.50
585.08	788.75
585.21	903.00
585.33	874.75
585.46	838.50
585.58	851.75
585.71	789.00
585.83	818.75
585.96	856.50
586.08	826.00
586.21	829.75
586.33	845.25
586.46	766.50
586.59	833.00
586.71	779.00
586.84	828.00
586.96	816.50
587.09	757.75
587.21	793.50
587.34	856.00
587.46	788.25
587.59	758.50
587.71	803.00
587.84	788.75
587.96	752.25
588.09	768.25
588.21	832.75
588.34	805.50
588.46	821.00
588.59	788.00
588.71	828.25
588.84	822.50
588.96	808.25
589.09	896.50
589.21	812.25
589.34	781.50
589.46	799.50
589.59	816.00
589.71	859.50
589.84	765.00
589.96	784.50
590.09	804.50
590.21	842.25
590.34	827.75
590.46	820.75
590.59	792.25
590.71	802.00
590.84	848.50
590.96	778.50
591.09	841.50
591.21	818.00
591.34	794.75
591.46	796.25
591.59	866.75
591.71	839.00
591.83	806.50
591.96	756.75
592.08	793.75
592.21	835.25
592.33	815.25
592.46	796.75
592.58	823.75
592.71	855.00
592.83	895.00
592.96	838.75
593.08	873.75
593.21	774.75
593.33	776.25
593.46	797.75
593.58	795.25
593.71	848.00
593.83	861.75
593.96	784.50
594.08	931.25
594.21	824.50
594.33	799.75
594.46	781.00
594.58	764.75
594.71	737.50
594.83	816.00
594.96	811.25
595.08	962.25
595.20	847.75
595.33	820.25
595.45	779.75
595.58	896.25
595.70	829.25
595.83	799.00
595.95	806.75
596.08	823.75
596.20	772.75
596.33	762.50
596.45	809.00
596.58	780.75
596.70	771.00
596.83	793.75
596.95	792.50
597.08	816.75
597.20	769.75
597.32	783.25
597.45	817.50
597.57	806.50
597.70	840.50
597.82	785.75
597.95	809.75
598.07	810.25
598.20	821.75
598.32	808.00
598.45	798.25
598.57	850.25
598.70	869.50
598.82	800.75
598.94	797.75
599.07	851.00
599.19	806.75
599.32	787.50
599.44	718.00
599.57	851.00
599.69	820.50
599.82	799.00
599.94	766.75
600.07	844.25
600.19	831.25
600.31	789.50
600.44	842.25
600.56	919.50
600.69	907.00
600.81	791.25
600.94	799.75
601.06	822.50
601.19	837.00
601.31	866.00
601.44	769.00
601.56	864.25
601.68	846.25
601.81	827.00
601.93	821.75
602.06	837.75
602.18	772.75
602.31	801.50
602.43	867.00
602.56	846.75
602.68	811.25
602.80	809.00
602.93	824.50
603.05	787.25
603.18	807.75
603.30	775.25
603.43	778.75
603.55	812.25
603.68	821.50
603.80	817.00
603.92	814.50
604.05	788.50
604.17	787.50
604.30	768.00
604.42	785.75
604.55	801.50
604.67	843.00
604.79	791.00
604.92	796.25
605.04	798.25
605.17	792.00
605.29	793.50
605.42	787.50
605.54	872.00
605.66	812.00
605.79	830.00
605.91	806.00
606.04	805.75
606.16	778.00
606.29	820.50
606.41	770.25
606.53	807.50
606.66	760.00
606.78	802.00
606.91	795.50
607.03	793.50
607.16	795.00
607.28	769.50
607.40	813.50
607.53	820.75
607.65	772.50
607.78	779.50
607.90	806.75
608.03	908.50
608.15	823.75
608.27	832.00
608.40	769.25
608.52	826.50
608.65	803.25
608.77	846.75
608.89	811.25
609.02	871.75
609.14	884.25
609.27	825.00
609.39	839.25
609.52	782.00
609.64	747.50
609.76	788.50
609.89	807.50
610.01	866.25
610.14	844.75
610.26	807.75
610.38	772.25
610.51	846.75
610.63	795.25
610.76	773.50
610.88	823.75
611.01	869.25
611.13	908.75
611.25	844.50
611.38	782.25
611.50	804.50
611.63	830.75
611.75	819.00
611.87	827.25
612.00	801.25
612.12	853.75
612.25	790.50
612.37	778.25
612.49	871.75
612.62	853.00
612.74	879.50
612.87	808.00
612.99	811.50
613.11	756.50
613.24	793.75
613.36	802.25
613.49	817.25
613.61	816.25
613.73	796.50
613.86	845.75
613.98	787.00
614.11	840.75
614.23	844.50
614.35	851.50
614.48	855.50
614.60	817.75
614.72	809.75
614.85	825.50
614.97	818.00
615.10	812.75
615.22	805.75
615.34	809.75
615.47	865.00
615.59	782.25
615.72	808.25
615.84	820.75
615.96	788.50
616.09	899.50
616.21	799.25
616.34	791.25
616.46	802.50
616.58	834.75
616.71	834.75
616.83	847.25
616.95	839.75
617.08	831.50
617.20	797.75
617.33	762.25
617.45	799.50
617.57	834.25
617.70	824.75
617.82	790.50
617.95	821.25
618.07	884.50
618.19	830.75
618.32	830.75
618.44	792.00
618.56	781.50
618.69	747.75
618.81	762.25
618.94	841.00
619.06	803.75
619.18	810.75
619.31	767.50
619.43	771.25
619.55	823.75
619.68	827.25
619.80	774.25
619.92	821.25
620.05	940.00
620.17	874.75
620.30	817.00
620.42	835.50
620.54	848.00
620.67	787.00
620.79	811.50
620.91	822.75
621.04	872.50
621.16	794.75
621.29	785.00
621.41	752.25
621.53	790.75
621.66	802.25
621.78	794.75
621.90	854.75
622.03	899.25
622.15	816.25
622.27	806.75
622.40	820.00
622.52	790.75
622.64	793.25
622.77	763.75
622.89	824.25
623.02	852.50
623.14	821.75
623.26	841.25
623.39	820.75
623.51	859.75
623.63	791.75
623.76	776.00
623.88	871.00
624.00	811.50
624.13	776.75
624.25	767.00
624.37	767.25
624.50	852.75
624.62	824.00
624.75	776.25
624.87	762.75
624.99	830.25
625.12	783.00
625.24	802.00
625.36	885.75
625.49	834.00
625.61	830.75
625.73	814.00
625.86	853.25
625.98	813.25
626.10	783.00
626.23	763.00
626.35	827.25
626.47	797.25
626.60	777.50
626.72	790.25
626.84	789.75
626.97	828.75
627.09	798.00
627.21	803.25
627.34	925.25
627.46	903.75
627.58	799.75
627.71	827.50
627.83	841.25
627.95	776.25
628.08	810.00
628.20	849.75
628.32	765.50
628.45	732.75
628.57	738.50
628.69	777.00
628.82	821.75
628.94	861.00
629.06	805.50
629.19	785.00
629.31	835.00
629.43	775.50
629.56	821.00
629.68	812.00
629.80	848.00
629.93	765.50
630.05	774.75
630.17	769.00
630.30	794.00
630.42	776.75
630.54	822.50
630.67	807.50
630.79	779.25
630.91	928.00
631.04	830.75
631.16	816.75
631.28	817.25
631.41	779.50
631.53	771.50
631.65	803.50
631.78	829.50
631.90	808.75
632.02	805.25
632.14	730.25
632.27	867.50
632.39	814.50
632.51	790.25
632.64	857.50
632.76	805.00
632.88	793.50
633.01	815.00
633.13	804.75
633.25	813.75
633.38	911.25
633.50	758.50
633.62	764.00
633.75	752.00
633.87	734.00
633.99	813.00
634.11	761.00
634.24	787.25
634.36	794.25
634.48	795.50
634.61	790.25
634.73	823.50
634.85	782.00
634.98	777.50
635.10	794.25
635.22	803.50
635.35	920.75
635.47	814.75
635.59	796.25
635.71	832.50
635.84	847.25
635.96	792.25
636.08	840.25
636.21	790.00
636.33	818.50
636.45	802.75
636.58	771.25
636.70	745.75
636.82	830.00
636.94	784.50
637.07	747.25
637.19	833.50
637.31	830.50
637.44	836.75
637.56	747.50
637.68	816.75
637.81	819.75
637.93	807.25
638.05	765.00
638.17	845.25
638.30	905.75
638.42	800.25
638.54	784.50
638.67	802.25
638.79	803.00
638.91	772.00
639.03	794.25
639.16	787.75
639.28	801.25
639.40	795.75
639.53	784.25
639.65	820.75
639.77	803.00
639.89	799.50
640.02	797.75
640.14	804.75
640.26	765.25
640.39	833.00
640.51	777.00
640.63	819.75
640.75	841.00
640.88	795.00
641.00	783.25
641.12	777.25
641.24	879.75
641.37	790.25
641.49	766.25
641.61	901.75
641.74	777.25
641.86	817.75
641.98	766.00
642.10	825.50
642.23	830.50
642.35	790.25
642.47	820.50
642.60	811.75
642.72	832.00
642.84	746.25
642.96	768.00
643.09	784.75
643.21	762.75
643.33	768.50
643.45	773.50
643.58	847.00
643.70	876.75
643.82	787.25
643.94	789.75
644.07	813.00
644.19	818.25
644.31	818.00
644.44	810.00
644.56	791.75
644.68	755.25
644.80	760.50
644.93	757.75
645.05	770.50
645.17	820.00
645.29	809.50
645.42	816.25
645.54	801.75
645.66	821.75
645.78	799.00
645.91	783.25
646.03	826.00
646.15	867.50
646.27	785.75
646.40	817.50
646.52	826.50
646.64	841.25
646.76	786.50
646.89	746.50
647.01	832.50
647.13	821.00
647.25	828.25
647.38	784.50
647.50	776.00
647.62	842.50
647.74	757.75
647.87	765.00
647.99	814.25
648.11	832.75
648.23	795.00
648.36	750.50
648.48	862.75
648.60	805.25
648.72	770.25
648.85	762.00
648.97	844.25
649.09	820.75
649.21	780.00
649.34	809.25
649.46	821.75
649.58	814.25
649.70	824.25
649.83	778.50
649.95	817.75
650.07	827.75
650.19	837.00
650.32	809.25
650.44	849.75
650.56	826.50
650.68	790.50
650.81	780.00
650.93	776.75
651.05	867.00
651.17	776.75
651.29	818.50
651.42	789.50
651.54	824.50
651.66	757.50
651.78	774.00
651.91	820.75
652.03	916.00
652.15	832.25
652.27	776.25
652.40	817.25
652.52	798.75
652.64	815.75
652.76	779.25
652.88	896.25
653.01	811.25
653.13	767.00
653.25	734.75
653.37	829.00
653.50	841.00
653.62	827.50
653.74	752.00
653.86	843.50
653.98	821.25
654.11	766.50
654.23	791.00
654.35	784.25
654.47	912.50
654.60	789.00
654.72	790.50
654.84	765.75
654.96	843.00
655.08	791.00
655.21	816.25
655.33	794.50
655.45	841.75
655.57	809.00
655.70	796.25
655.82	836.75
655.94	884.50
656.06	829.25
656.18	764.25
656.31	855.50
656.43	816.50
656.55	771.25
656.67	786.25
656.79	799.25
656.92	851.50
657.04	809.25
657.16	791.75
657.28	912.50
657.40	805.75
657.53	832.50
657.65	796.25
657.77	853.50
657.89	852.75
658.01	789.25
658.14	761.75
658.26	834.25
658.38	790.50
658.50	762.25
658.62	775.50
658.75	927.00
658.87	838.75
658.99	822.00
659.11	767.00
659.23	848.00
659.36	906.25
659.48	846.00
659.60	818.75
659.72	820.75
659.84	816.00
659.97	833.25
660.09	839.25
660.21	908.00
660.33	856.75
660.45	755.75
660.58	731.25
660.70	782.50
660.82	791.00
660.94	756.25
661.06	802.50
661.19	863.25
661.31	836.00
661.43	801.75
661.55	794.00
661.67	844.00
661.80	875.50
661.92	804.00
662.04	814.75
662.16	809.50
662.28	862.50
662.40	808.25
662.53	803.75
662.65	826.50
662.77	775.75
662.89	815.75
663.01	781.00
663.14	800.50
663.26	840.50
663.38	812.50
663.50	765.25
663.62	782.75
663.74	806.25
663.87	783.75
663.99	816.25
664.11	843.25
664.23	921.00
664.35	793.50
664.48	791.75
664.60	797.25
664.72	792.50
664.84	756.50
664.96	790.75
665.08	844.00
665.21	822.50
665.33	829.75
665.45	753.25
665.57	803.25
665.69	880.25
665.81	799.75
665.94	766.75
666.06	773.00
666.18	823.25
666.30	788.00
666.42	782.75
666.54	811.75
666.67	836.00
666.79	772.75
666.91	827.75
667.03	791.00
667.15	762.50
667.27	785.25
667.40	769.00
667.52	792.25
667.64	840.75
667.76	788.25
667.88	762.00
668.00	833.25
668.13	837.00
668.25	772.75
668.37	774.00
668.49	787.50
668.61	847.50
668.73	793.50
668.85	800.75
668.98	823.50
669.10	810.25
669.22	781.75
669.34	789.25
669.46	847.50
669.58	795.00
669.71	811.75
669.83	803.75
669.95	790.50
670.07	800.00
670.19	781.25
670.31	791.25
670.43	786.00
670.56	830.75
670.68	853.00
670.80	827.25
670.92	807.25
671.04	859.50
671.16	789.50
671.28	785.25
671.41	796.75
671.53	839.25
671.65	789.50
671.77	795.00
671.89	947.25
672.01	888.50
672.13	840.75
672.26	774.50
672.38	803.00
672.50	776.75
672.62	795.75
672.74	810.00
672.86	799.25
672.98	813.25
673.11	807.25
673.23	807.75
673.35	862.00
673.47	800.50
673.59	801.25
673.71	773.75
673.83	824.75
673.96	910.75
674.08	806.00
674.20	762.00
674.32	793.75
674.44	808.25
674.56	826.75
674.68	816.50
674.80	843.00
674.93	807.25
675.05	798.50
675.17	810.50
675.29	841.50
675.41	843.00
675.53	799.25
675.65	797.25
675.77	795.50
675.90	847.25
676.02	779.75
676.14	769.25
676.26	876.50
676.38	902.75
676.50	809.50
676.62	823.75
676.74	756.75
676.87	791.25
676.99	813.25
677.11	849.50
677.23	813.25
677.35	841.25
677.47	761.00
677.59	780.00
677.71	826.50
677.83	828.50
677.96	806.75
678.08	799.75
678.20	802.25
678.32	768.75
678.44	798.50
678.56	798.00
678.68	935.75
678.80	838.50
678.93	786.25
679.05	815.50
679.17	799.25
679.29	860.00
679.41	807.50
679.53	777.50
679.65	783.75
679.77	816.50
679.89	791.25
680.01	839.00
680.14	838.50
680.26	741.50
680.38	782.25
680.50	834.00
680.62	876.50
680.74	829.75
680.86	793.25
680.98	811.00
681.10	831.00
681.22	890.50
681.35	785.00
681.47	788.75
681.59	777.75
681.71	880.50
681.83	798.75
681.95	778.50
682.07	867.25
682.19	816.50
682.31	786.25
682.43	760.00
682.56	839.75
682.68	770.00
682.80	782.00
682.92	825.75
683.04	814.00
683.16	796.00
683.28	771.50
683.40	832.25
683.52	802.75
683.64	838.00
683.76	775.75
683.89	786.75
684.01	793.50
684.13	856.00
684.25	802.00
684.37	811.25
684.49	841.50
684.61	793.75
684.73	809.75
684.85	803.00
684.97	777.50
685.09	858.25
685.21	780.50
685.34	798.75
685.46	923.50
685.58	830.75
685.70	814.50
685.82	839.00
685.94	779.50
686.06	771.25
686.18	770.50
686.30	794.75
686.42	762.50
686.54	824.50
686.66	772.25
686.79	871.75
686.91	830.25
687.03	916.75
687.15	837.75
687.27	804.25
687.39	797.00
687.51	885.00
687.63	817.25
687.75	849.25
687.87	829.25
687.99	880.50
688.11	779.50
688.23	821.50
688.35	857.50
688.48	826.75
688.60	767.00
688.72	797.25
688.84	817.50
688.96	841.00
689.08	802.75
689.20	806.75
689.32	925.50
689.44	823.25
689.56	758.00
689.68	786.00
689.80	795.50
689.92	773.25
690.04	794.00
690.16	838.75
690.28	825.50
690.41	831.50
690.53	781.00
690.65	846.00
690.77	864.75
690.89	855.50
691.01	810.25
691.13	787.75
691.25	770.75
691.37	798.75
691.49	757.25
691.61	762.75
691.73	881.75
691.85	807.50
691.97	789.75
692.09	772.50
692.21	850.75
692.33	881.00
692.45	820.75
692.57	785.75
692.70	810.75
692.82	829.00
692.94	749.50
693.06	787.75
693.18	807.25
693.30	783.75
693.42	776.75
693.54	814.00
693.66	830.00
693.78	829.00
693.90	795.25
694.02	807.50
694.14	829.25
694.26	794.00
694.38	815.75
694.50	820.25
694.62	822.75
694.74	768.00
694.86	772.75
694.98	813.25
695.10	825.00
695.22	858.00
695.34	785.00
695.46	784.25
695.58	789.75
695.71	818.75
695.83	784.50
695.95	789.50
696.07	867.50
696.19	774.75
696.31	783.50
696.43	768.50
696.55	886.00
696.67	816.00
696.79	782.00
696.91	798.00
697.03	790.00
697.15	881.25
697.27	804.50
697.39	783.25
697.51	836.25
697.63	780.00
697.75	787.50
697.87	816.25
697.99	765.75
698.11	733.00
698.23	769.25
698.35	789.50
698.47	793.25
698.59	813.25
698.71	790.50
698.83	855.00
698.95	771.75
699.07	812.75
699.19	790.25
699.31	808.25
699.43	772.00
699.55	823.50
699.67	788.25
699.79	789.00
699.91	787.00
700.03	818.50
700.15	808.75
700.27	774.00
700.39	798.75
700.51	764.50
700.63	797.50
700.75	794.00
700.87	823.00
700.99	795.25
701.11	827.25
701.24	799.75
701.36	843.00
701.48	842.00
701.60	824.75
701.72	774.00
701.84	862.00
701.96	816.75
702.08	806.50
702.20	877.00
702.32	828.00
702.44	841.00
702.56	793.25
702.68	797.25
702.80	805.75
702.92	893.75
703.04	869.50
703.16	810.75
703.28	817.50
703.40	797.25
703.52	827.75
703.64	818.50
703.76	832.00
703.88	797.50
704.00	792.00
704.12	802.00
704.24	853.00
704.36	820.25
704.48	814.50
704.60	762.00
704.72	798.75
704.84	790.25
704.96	830.75
705.07	815.50
705.19	766.25
705.31	792.75
705.43	828.50
705.55	776.50
705.67	829.50
705.79	808.75
705.91	749.50
706.03	807.25
706.15	822.25
706.27	798.25
706.39	792.75
706.51	785.50
706.63	789.75
706.75	824.75
706.87	815.50
706.99	864.25
707.11	815.00
707.23	799.00
707.35	814.50
707.47	805.25
707.59	835.25
707.71	849.75
707.83	800.75
707.95	841.25
708.07	798.50
708.19	930.50
708.31	817.25
708.43	773.00
708.55	825.50
708.67	864.50
708.79	805.75
708.91	842.25
709.03	817.75
709.15	862.50
709.27	790.25
709.39	815.75
709.51	795.00
709.63	830.00
709.75	837.00
709.87	768.25
709.99	841.50
710.11	781.25
710.23	785.00
710.35	768.25
710.47	908.50
710.58	862.00
710.70	861.75
710.82	861.75
710.94	812.75
711.06	796.75
711.18	817.50
711.30	789.25
711.42	847.25
711.54	814.75
711.66	834.00
711.78	782.00
711.90	826.50
712.02	871.50
712.14	775.50
712.26	759.00
712.38	861.25
712.50	870.50
712.62	796.75
712.74	784.50
712.86	780.50
712.98	839.00
713.10	781.00
713.22	767.25
713.34	809.75
713.45	784.50
713.57	814.50
713.69	766.75
713.81	795.75
713.93	812.75
714.05	796.25
714.17	753.50
714.29	870.00
714.41	854.00
714.53	788.00
714.65	819.75
714.77	806.75
714.89	763.50
715.01	853.25
715.13	777.50
715.25	809.00
715.37	772.50
715.49	744.00
715.61	830.50
715.72	813.75
715.84	856.00
715.96	797.75
716.08	794.25
716.20	879.75
716.32	858.25
716.44	797.00
716.56	802.00
716.68	810.00
716.80	895.00
716.92	865.50
717.04	815.00
717.16	831.50
717.28	806.25
717.40	798.00
717.52	809.50
717.63	789.75
717.75	817.50
717.87	807.00
717.99	833.00
718.11	793.75
718.23	875.25
718.35	833.75
718.47	819.75
718.59	753.50
718.71	807.50
718.83	790.75
718.95	829.50
719.07	767.75
719.19	798.75
719.30	788.50
719.42	823.00
719.54	804.50
719.66	823.50
719.78	823.75
719.90	755.00
720.02	810.75
720.14	813.00
720.26	837.50
720.38	837.50
720.50	792.25
720.62	731.00
720.74	811.75
720.85	810.00
720.97	871.75
721.09	900.00
721.21	798.00
721.33	875.25
721.45	814.25
721.57	822.50
721.69	778.50
721.81	755.25
721.93	877.25
722.05	824.00
722.16	776.75
722.28	745.75
722.40	786.25
722.52	858.50
722.64	873.75
722.76	783.50
722.88	831.25
723.00	835.25
723.12	792.25
723.24	812.50
723.36	748.00
723.47	845.50
723.59	819.00
723.71	789.50
723.83	824.00
723.95	791.50
724.07	803.00
724.19	826.00
724.31	891.00
724.43	772.25
724.55	736.50
724.66	773.75
724.78	938.50
724.90	784.00
725.02	782.00
725.14	785.75
725.26	803.00
725.38	743.25
725.50	801.50
725.62	809.75
725.74	806.75
725.85	800.75
725.97	818.50
726.09	865.25
726.21	1136.25
726.33	846.00
726.45	797.50
726.57	784.75
726.69	810.75
726.81	809.75
726.92	796.50
727.04	812.50
727.16	824.50
727.28	796.00
727.40	796.75
727.52	809.75
727.64	934.50
727.76	907.25
727.88	828.75
727.99	776.00
728.11	770.50
728.23	803.50
728.35	790.00
728.47	792.75
728.59	791.00
728.71	817.75
728.83	807.50
728.94	832.25
729.06	892.00
729.18	871.50
729.30	835.75
729.42	821.75
729.54	892.00
729.66	900.75
729.78	811.50
729.90	819.25
730.01	793.25
730.13	734.25
730.25	803.50
730.37	802.75
730.49	831.00
730.61	815.25
730.73	824.25
730.84	834.50
730.96	834.75
731.08	821.00
731.20	823.00
731.32	824.75
731.44	959.50
731.56	805.75
731.68	777.50
731.79	817.50
731.91	786.50
732.03	793.00
732.15	801.75
732.27	773.75
732.39	793.25
732.51	843.50
732.62	782.00
732.74	810.25
732.86	864.75
732.98	826.75
733.10	804.00
733.22	820.25
733.34	842.50
733.45	750.50
733.57	810.50
733.69	770.25
733.81	800.25
733.93	819.00
734.05	741.50
734.17	799.25
734.28	805.00
734.40	812.75
734.52	795.00
734.64	804.00
734.76	885.25
734.88	806.25
735.00	768.50
735.11	806.75
735.23	860.50
735.35	795.25
735.47	752.00
735.59	842.25
735.71	802.50
735.83	817.25
735.94	828.25
736.06	816.75
736.18	861.75
736.30	853.25
736.42	835.50
736.54	826.00
736.65	845.75
736.77	952.25
736.89	855.25
737.01	818.00
737.13	912.00
737.25	742.00
737.36	772.25
737.48	801.25
737.60	821.00
737.72	790.50
737.84	809.25
737.96	857.25
738.08	803.00
738.19	896.50
738.31	797.00
738.43	822.25
738.55	815.50
738.67	819.75
738.79	789.50
738.90	807.50
739.02	826.75
739.14	793.50
739.26	809.50
739.38	810.50
739.50	837.50
739.61	804.50
739.73	812.25
739.85	812.25
739.97	834.50
740.09	866.25
740.20	769.25
740.32	813.50
740.44	841.25
740.56	773.25
740.68	800.75
740.80	814.50
740.91	813.25
741.03	851.50
741.15	836.25
741.27	801.00
741.39	854.50
741.51	828.00
741.62	852.75
741.74	814.25
741.86	810.75
741.98	789.25
742.10	826.75
742.21	820.00
742.33	817.50
742.45	781.75
742.57	860.75
742.69	802.25
742.80	844.25
742.92	810.00
743.04	807.50
743.16	797.00
743.28	862.00
743.40	777.00
743.51	787.00
743.63	773.75
743.75	814.50
743.87	816.75
743.99	825.25
744.10	808.75
744.22	812.50
744.34	792.75
744.46	832.75
744.58	824.75
744.69	749.50
744.81	812.75
744.93	771.50
745.05	773.00
745.17	881.25
745.28	886.25
745.40	835.75
745.52	813.75
745.64	822.75
745.76	847.25
745.87	801.50
745.99	787.50
746.11	828.75
746.23	777.00
746.35	804.50
746.46	791.75
746.58	914.25
746.70	821.75
746.82	824.50
746.94	809.00
747.05	779.25
747.17	764.50
747.29	756.50
747.41	798.50
747.53	941.75
747.64	801.75
747.76	861.75
747.88	866.00
748.00	861.25
748.12	820.00
748.23	813.00
748.35	820.75
748.47	864.75
748.59	863.75
748.70	794.75
748.82	784.25
748.94	786.25
749.06	796.50
749.18	803.25
749.29	781.75
749.41	836.50
749.53	820.50
749.65	807.25
749.76	842.25
749.88	811.50
750.00	836.50
750.12	848.25
750.24	828.50
750.35	806.75
750.47	772.00
750.59	839.25
750.71	817.00
750.82	851.00
750.94	790.00
751.06	799.00
751.18	795.75
751.30	854.75
751.41	845.25
751.53	844.00
751.65	794.75
751.77	799.50
751.88	825.50
752.00	848.75
752.12	767.50
752.24	861.75
752.35	839.50
752.47	846.25
752.59	856.75
752.71	904.75
752.83	792.75
752.94	868.75
753.06	783.75
753.18	813.75
753.30	794.00
753.41	752.00
753.53	798.50
753.65	807.50
753.77	860.75
753.88	782.00
754.00	815.25
754.12	819.25
754.24	889.75
754.35	793.00
754.47	759.75
754.59	842.25
754.71	842.25
754.82	804.75
754.94	793.50
755.06	873.25
755.18	838.50
755.29	831.50
755.41	805.00
755.53	842.75
755.65	793.50
755.76	813.75
755.88	812.00
756.00	881.25
756.12	799.50
756.23	718.25
756.35	783.50
756.47	860.00
756.59	798.75
756.70	791.75
756.82	792.75
756.94	797.75
757.06	829.00
757.17	839.75
757.29	807.25
757.41	755.00
757.53	833.00
757.64	806.75
757.76	823.75
757.88	845.50
758.00	831.50
758.11	790.75
758.23	775.75
758.35	835.50
758.47	779.00
758.58	833.75
758.70	775.50
758.82	797.50
758.94	775.50
759.05	808.50
759.17	767.50
759.29	805.00
759.40	868.75
759.52	803.00
759.64	798.25
759.76	828.25
759.87	844.00
759.99	828.25
760.11	795.25
760.23	818.00
760.34	855.25
760.46	830.25
760.58	807.25
760.70	816.75
760.81	867.75
760.93	824.75
761.05	840.50
761.16	827.50
761.28	800.50
761.40	790.75
761.52	779.25
761.63	872.00
761.75	841.75
761.87	800.75
761.98	764.25
762.10	834.50
762.22	825.50
762.34	852.50
762.45	789.25
762.57	848.00
762.69	944.25
762.81	811.50
762.92	835.25
763.04	763.75
763.16	829.50
763.27	840.00
763.39	794.25
763.51	853.50
763.63	839.00
763.74	796.00
763.86	764.50
763.98	781.50
764.09	812.25
764.21	827.25
764.33	782.00
764.44	792.25
764.56	829.50
764.68	785.50
764.80	816.25
764.91	757.50
765.03	873.25
765.15	798.00
765.26	803.50
765.38	774.25
765.50	848.75
765.62	810.00
765.73	808.25
765.85	822.25
765.97	767.50
766.08	820.25
766.20	834.25
766.32	833.00
766.43	859.00
766.55	848.75
766.67	803.75
766.79	810.25
766.90	785.25
767.02	751.00
767.14	763.50
767.25	770.25
767.37	903.50
767.49	837.75
767.60	808.00
767.72	867.75
767.84	847.00
767.95	802.50
768.07	780.25
768.19	839.50
768.31	842.25
768.42	829.25
768.54	809.00
768.66	812.50
768.77	850.00
768.89	813.75
769.01	789.00
769.12	835.50
769.24	823.75
769.36	776.50
769.47	794.00
769.59	776.50
769.71	833.50
769.82	812.25
769.94	792.25
770.06	784.00
770.17	852.50
770.29	825.00
770.41	846.75
770.53	847.00
770.64	779.50
770.76	812.00
770.88	829.75
770.99	845.25
771.11	786.25
771.23	827.00
771.34	809.25
771.46	908.75
771.58	881.00
771.69	851.50
771.81	815.75
771.93	859.00
772.04	793.00
772.16	849.75
772.28	815.75
772.39	870.25
772.51	804.75
772.63	836.75
772.74	802.75
772.86	803.75
772.98	923.75
773.09	794.00
773.21	796.25
773.33	839.00
773.44	842.00
773.56	813.50
773.68	816.25
773.79	865.50
773.91	810.00
774.03	818.50
774.14	811.75
774.26	862.75
774.38	789.25
774.49	773.75
774.61	806.00
774.73	816.25
774.84	801.75
774.96	792.75
775.08	811.00
775.19	831.75
775.31	861.25
775.43	820.25
775.54	793.75
775.66	767.25
775.77	855.25
775.89	777.25
776.01	852.25
776.12	871.00
776.24	839.25
776.36	768.50
776.47	790.00
776.59	826.75
776.71	853.50
776.82	758.75
776.94	773.00
777.06	796.50
777.17	874.25
777.29	782.00
777.41	785.00
777.52	837.25
777.64	815.75
777.75	841.00
777.87	760.25
777.99	801.25
778.10	867.75
778.22	811.00
778.34	814.25
778.45	810.75
778.57	862.50
778.69	850.50
778.80	836.00
778.92	916.75
779.04	834.00
779.15	807.75
779.27	856.25
779.38	848.25
779.50	871.75
779.62	770.25
779.73	815.50
779.85	762.00
779.97	931.00
780.08	821.75
780.20	816.00
780.31	843.50
780.43	855.75
780.55	799.00
780.66	825.00
780.78	840.75
780.90	918.00
781.01	789.50
781.13	813.50
781.25	804.25
781.36	877.00
781.48	786.00
781.59	812.00
781.71	854.25
781.83	835.75
781.94	791.25
782.06	805.00
782.18	856.00
782.29	794.00
782.41	765.25
782.52	861.50
782.64	865.25
782.76	833.75
782.87	838.25
782.99	815.75
783.10	942.25
783.22	948.50
783.34	832.25
783.45	822.00
783.57	815.50
783.69	792.00
783.80	827.00
783.92	842.00
784.03	817.75
784.15	799.75
784.27	807.50
784.38	804.25
784.50	790.50
784.61	816.00
784.73	795.50
784.85	794.25
784.96	790.50
785.08	870.25
785.19	853.75
785.31	801.75
785.43	781.50
785.54	784.50
785.66	842.75
785.77	829.75
785.89	841.50
786.01	773.00
786.12	804.50
786.24	825.00
786.35	887.00
786.47	825.50
786.59	804.00
786.70	775.25
786.82	828.25
786.93	833.00
787.05	819.50
787.17	821.00
787.28	816.00
787.40	838.25
787.51	840.00
787.63	837.50
787.75	778.75
787.86	828.00
787.98	853.00
788.09	820.00
788.21	836.00
788.33	852.75
788.44	838.25
788.56	790.00
788.67	844.50
788.79	803.25
788.91	824.00
789.02	803.00
789.14	807.50
789.25	904.25
789.37	844.50
789.48	792.50
789.60	826.75
789.72	795.25
789.83	845.00
789.95	825.50
790.06	775.00
790.18	791.00
790.30	852.00
790.41	832.00
790.53	796.75
790.64	781.00
790.76	782.25
790.87	809.25
790.99	817.50
791.11	824.25
791.22	806.00
791.34	816.25
791.45	842.25
791.57	848.75
791.68	810.50
791.80	803.50
791.92	855.25
792.03	794.50
792.15	778.75
792.26	799.00
792.38	769.00
792.49	837.00
792.61	808.75
792.73	832.75
792.84	820.25
792.96	909.25
793.07	807.00
793.19	1592.00
793.30	897.00
793.42	854.75
793.54	751.75
793.65	773.00
793.77	951.00
793.88	815.75
794.00	770.50
794.11	822.75
794.23	763.75
794.34	830.25
794.46	760.25
794.58	775.25
794.69	899.00
794.81	888.50
794.92	786.25
795.04	783.25
795.15	895.25
795.27	851.50
795.39	825.75
795.50	789.00
795.62	788.00
795.73	800.75
795.85	783.00
795.96	831.50
796.08	874.00
796.19	799.25
796.31	811.25
796.42	781.50
796.54	794.25
796.66	860.00
796.77	784.50
796.89	765.50
797.00	857.00
797.12	740.75
797.23	796.00
797.35	825.25
797.46	855.00
797.58	869.75
797.69	836.50
797.81	807.50
797.93	810.75
798.04	790.50
798.16	785.50
798.27	826.00
798.39	780.50
798.50	768.50
798.62	766.25
798.73	769.25
798.85	882.00
798.96	819.25
799.08	829.50
799.19	858.00
799.31	827.00
799.43	819.25
799.54	795.50
799.66	814.50
799.77	847.75
799.89	783.50
800.00	750.75
800.12	801.00
800.23	863.75
800.35	899.75
800.46	754.25
800.58	739.75
800.69	806.50
800.81	798.00
800.92	771.00
801.04	817.00
801.16	747.25
801.27	763.75
801.39	778.25
801.50	796.50
801.62	799.75
801.73	861.25
801.85	849.50
801.96	776.75
802.08	861.25
802.19	856.75
802.31	795.75
802.42	809.75
802.54	885.50
802.65	856.75
802.77	776.75
802.88	841.75
803.00	767.25
803.11	913.50
803.23	817.00
803.34	816.75
803.46	837.50
803.57	777.50
803.69	844.25
803.80	776.50
803.92	864.00
804.03	808.00
804.15	816.00
804.26	840.75
804.38	851.75
804.50	789.50
804.61	826.50
804.73	818.25
804.84	817.25
804.96	741.50
805.07	810.25
805.19	784.00
805.30	834.00
805.42	858.25
805.53	813.25
805.65	782.00
805.76	761.75
805.88	799.25
805.99	824.75
806.11	839.25
806.22	784.75
806.34	795.75
806.45	820.00
806.57	798.75
806.68	851.00
806.80	743.75
806.91	779.50
807.03	773.00
807.14	742.25
807.26	762.75
807.37	758.00
807.49	825.25
807.60	787.00
807.72	876.00
807.83	888.75
807.95	830.25
808.06	827.00
808.17	818.00
808.29	843.00
808.40	779.50
808.52	810.50
808.63	828.75
808.75	818.00
808.86	814.00
808.98	828.00
809.09	784.25
809.21	825.75
809.32	787.75
809.44	839.50
809.55	773.25
809.67	828.00
809.78	780.75
809.90	839.00
810.01	868.00
810.13	787.75
810.24	837.75
810.36	761.25
810.47	843.75
810.59	811.25
810.70	834.75
810.82	861.25
810.93	782.25
811.05	784.00
811.16	791.50
811.27	789.00
811.39	824.25
811.50	855.75
811.62	768.75
811.73	740.25
811.85	831.25
811.96	823.75
812.08	836.75
812.19	814.75
812.31	825.75
812.42	801.75
812.54	799.25
812.65	852.00
812.77	863.00
812.88	853.25
813.00	852.25
813.11	836.75
813.22	790.00
813.34	797.50
813.45	827.75
813.57	897.50
813.68	895.25
813.80	832.50
813.91	777.75
814.03	813.25
814.14	903.50
814.26	803.75
814.37	814.50
814.49	820.50
814.60	797.25
814.71	792.50
814.83	807.50
814.94	772.50
815.06	797.25
815.17	819.00
815.29	813.00
815.40	771.00
815.52	898.00
815.63	806.50
815.75	792.00
815.86	820.75
815.97	772.50
816.09	815.75
816.20	838.00
816.32	842.75
816.43	777.25
816.55	826.25
816.66	801.50
816.78	891.00
816.89	810.00
817.00	814.50
817.12	796.00
817.23	787.25
817.35	854.75
817.46	818.25
817.58	788.50
817.69	906.75
817.81	819.00
817.92	856.25
818.03	819.00
818.15	813.75
818.26	776.75
818.38	776.25
818.49	812.00
818.61	826.25
818.72	777.00
818.83	1443.75
818.95	882.75
819.06	781.50
819.18	800.75
819.29	828.50
819.41	812.00
819.52	824.50
819.64	830.25
819.75	798.50
819.86	774.25
819.98	803.50
820.09	836.25
820.21	819.50
820.32	786.00
820.44	844.75
820.55	895.75
820.66	799.25
820.78	850.50
820.89	822.75
821.01	840.50
821.12	821.75
821.23	827.25
821.35	799.00
821.46	863.00
821.58	820.50
821.69	801.00
821.81	794.75
821.92	883.00
822.03	811.75
822.15	824.50
822.26	782.00
822.38	789.75
822.49	836.75
822.61	831.50
822.72	826.00
822.83	867.50
822.95	811.00
823.06	826.00
823.18	870.25
823.29	889.00
823.40	844.50
823.52	813.75
823.63	776.00
823.75	903.75
823.86	818.25
823.97	774.50
824.09	855.00
824.20	790.25
824.32	832.50
824.43	809.25
824.55	863.50
824.66	910.00
824.77	818.00
824.89	836.75
825.00	881.25
825.12	833.50
825.23	841.75
825.34	773.50
825.46	784.00
825.57	853.75
825.69	798.25
825.80	759.25
825.91	791.25
826.03	764.50
826.14	838.50
826.26	786.50
826.37	824.75
826.48	806.25
826.60	826.25
826.71	792.25
826.83	836.00
826.94	837.50
827.05	870.00
827.17	851.50
827.28	822.00
827.39	803.00
827.51	782.50
827.62	816.25
827.74	817.75
827.85	805.25
827.96	794.25
828.08	810.50
828.19	914.25
828.31	820.25
828.42	763.00
828.53	835.25
828.65	867.50
828.76	873.50
828.87	840.50
828.99	792.75
