Wavelength (nm)	Intensity
377.35	816.25
377.48	591.50
377.62	613.50
377.75	615.25
377.88	821.00
378.02	806.50
378.15	808.25
378.28	777.25
378.41	855.25
378.55	820.00
378.68	811.50
378.81	787.50
378.95	810.00
379.08	792.00
379.21	775.00
379.35	832.25
379.48	832.25
379.61	891.75
379.74	804.00
379.88	786.75
380.01	866.75
380.14	924.75
380.28	854.75
380.41	776.75
380.54	818.00
380.68	839.50
380.81	748.75
380.94	837.25
381.07	879.75
381.21	884.25
381.34	809.75
381.47	751.00
381.61	958.00
381.74	818.50
381.87	775.75
382.00	826.50
382.14	900.00
382.27	851.50
382.40	802.75
382.54	872.00
382.67	872.50
382.80	783.25
382.93	784.00
383.07	813.25
383.20	815.50
383.33	848.00
383.47	794.00
383.60	772.25
383.73	954.25
383.86	847.00
384.00	803.00
384.13	794.00
384.26	844.00
384.40	860.50
384.53	818.00
384.66	861.25
384.79	826.00
384.93	795.75
385.06	798.50
385.19	826.25
385.33	933.50
385.46	844.25
385.59	797.00
385.72	831.00
385.86	774.50
385.99	802.25
386.12	808.25
386.25	788.50
386.39	861.75
386.52	871.50
386.65	812.00
386.79	805.75
386.92	798.50
387.05	890.50
387.18	768.25
387.32	782.25
387.45	846.25
387.58	828.50
387.71	793.50
387.85	798.00
387.98	830.50
388.11	850.50
388.25	823.75
388.38	812.25
388.51	845.25
388.64	863.25
388.78	788.00
388.91	770.00
389.04	816.00
389.17	913.25
389.31	819.25
389.44	839.00
389.57	870.50
389.70	846.50
389.84	803.25
389.97	791.75
390.10	803.50
390.24	841.00
390.37	810.75
390.50	793.00
390.63	880.25
390.77	813.25
390.90	821.25
391.03	820.75
391.16	765.00
391.30	804.75
391.43	792.75
391.56	795.50
391.69	786.75
391.83	869.25
391.96	824.75
392.09	794.00
392.22	907.75
392.36	836.75
392.49	788.25
392.62	806.25
392.75	836.25
392.89	877.25
393.02	780.25
393.15	782.00
393.28	770.00
393.42	907.75
393.55	764.25
393.68	799.00
393.81	737.50
393.95	789.75
394.08	796.75
394.21	799.75
394.34	857.75
394.48	842.50
394.61	852.25
394.74	829.25
394.87	855.00
395.01	824.50
395.14	840.25
395.27	795.75
395.40	912.00
395.54	905.50
395.67	822.50
395.80	801.00
395.93	837.75
396.07	795.25
396.20	785.75
396.33	748.50
396.46	797.25
396.59	812.75
396.73	806.50
396.86	781.75
396.99	866.00
397.12	826.50
397.26	817.75
397.39	809.50
397.52	1097.25
397.65	923.25
397.79	810.00
397.92	800.75
398.05	861.00
398.18	798.00
398.32	806.50
398.45	832.00
398.58	844.00
398.71	843.75
398.84	778.00
398.98	806.75
399.11	837.25
399.24	833.00
399.37	796.50
399.51	780.00
399.64	812.50
399.77	816.50
399.90	814.00
400.03	814.00
400.17	778.00
400.30	877.50
400.43	844.25
400.56	819.00
400.70	827.25
400.83	802.50
400.96	784.75
401.09	818.75
401.23	812.75
401.36	876.75
401.49	800.75
401.62	817.75
401.75	809.75
401.89	789.00
402.02	796.25
402.15	820.25
402.28	833.25
402.41	828.75
402.55	792.25
402.68	800.25
402.81	884.25
402.94	854.75
403.08	792.50
403.21	775.00
403.34	855.75
403.47	849.75
403.60	809.75
403.74	832.25
403.87	854.25
404.00	788.25
404.13	784.50
404.26	766.25
404.40	784.25
404.53	830.25
404.66	808.25
404.79	772.75
404.93	847.50
405.06	832.25
405.19	768.00
405.32	810.25
405.45	832.25
405.59	860.50
405.72	810.00
405.85	790.75
405.98	984.25
406.11	792.00
406.25	777.25
406.38	801.25
406.51	837.25
406.64	813.25
406.77	775.00
406.91	774.75
407.04	835.75
407.17	798.50
407.30	825.00
407.43	799.50
407.57	884.00
407.70	864.00
407.83	786.50
407.96	811.75
408.09	783.00
408.23	897.50
408.36	810.50
408.49	794.00
408.62	926.50
408.75	827.00
408.89	790.50
409.02	831.25
409.15	820.25
409.28	893.75
409.41	847.00
409.55	793.00
409.68	934.75
409.81	834.75
409.94	795.00
410.07	819.50
410.20	827.25
410.34	802.25
410.47	805.50
410.60	819.75
410.73	849.00
410.86	792.00
411.00	822.50
411.13	779.50
411.26	825.25
411.39	820.25
411.52	836.25
411.66	803.00
411.79	803.00
411.92	792.50
412.05	810.00
412.18	800.00
412.31	832.75
412.45	865.25
412.58	845.50
412.71	770.00
412.84	839.00
412.97	889.25
413.11	823.50
413.24	832.00
413.37	847.75
413.50	919.25
413.63	830.25
413.76	803.00
413.90	844.75
414.03	796.00
414.16	794.75
414.29	826.00
414.42	821.75
414.56	916.00
414.69	796.25
414.82	815.50
414.95	819.50
415.08	839.00
415.21	817.00
415.35	833.75
415.48	742.00
415.61	864.50
415.74	871.50
415.87	772.00
416.00	820.25
416.14	933.25
416.27	823.75
416.40	782.00
416.53	808.00
416.66	841.25
416.79	818.50
416.93	784.25
417.06	837.25
417.19	818.75
417.32	800.50
417.45	793.50
417.58	774.00
417.72	853.25
417.85	801.25
417.98	810.75
418.11	852.25
418.24	793.00
418.37	801.75
418.51	813.50
418.64	824.75
418.77	891.75
418.90	829.50
419.03	772.75
419.16	829.25
419.29	861.75
419.43	798.50
419.56	782.25
419.69	924.50
419.82	876.25
419.95	815.75
420.08	853.25
420.22	882.00
420.35	940.00
420.48	859.00
420.61	804.75
420.74	756.50
420.87	852.00
421.00	774.00
421.14	804.50
421.27	851.50
421.40	887.25
421.53	834.25
421.66	811.50
421.79	809.25
421.93	817.25
422.06	822.00
422.19	793.50
422.32	859.00
422.45	862.25
422.58	839.25
422.71	801.50
422.85	868.50
422.98	863.00
423.11	778.50
423.24	760.25
423.37	776.75
423.50	786.75
423.63	805.25
423.77	788.25
423.90	789.25
424.03	827.75
424.16	845.00
424.29	815.00
424.42	763.00
424.55	786.25
424.69	780.00
424.82	817.50
424.95	823.25
425.08	788.00
425.21	835.75
425.34	802.75
425.47	812.50
425.60	841.25
425.74	773.00
425.87	805.75
426.00	817.75
426.13	829.00
426.26	785.50
426.39	786.00
426.52	803.50
426.66	889.00
426.79	839.75
426.92	790.75
427.05	915.00
427.18	873.25
427.31	799.00
427.44	804.25
427.57	781.75
427.71	812.50
427.84	774.50
427.97	818.00
428.10	872.75
428.23	820.75
428.36	792.25
428.49	726.25
428.62	941.50
428.76	915.25
428.89	833.00
429.02	767.75
429.15	802.75
429.28	919.75
429.41	791.25
429.54	807.50
429.67	800.75
429.81	852.25
429.94	810.50
430.07	794.50
430.20	864.50
430.33	882.75
430.46	777.50
430.59	779.25
430.72	814.75
430.85	765.25
430.99	804.75
431.12	779.75
431.25	872.00
431.38	879.50
431.51	813.75
431.64	822.75
431.77	900.25
431.90	895.50
432.03	812.50
432.17	789.25
432.30	818.50
432.43	842.75
432.56	816.75
432.69	829.75
432.82	829.25
432.95	877.25
433.08	821.75
433.21	820.75
433.35	800.00
433.48	814.00
433.61	778.00
433.74	803.25
433.87	791.50
434.00	847.25
434.13	789.25
434.26	836.50
434.39	836.50
434.53	842.25
434.66	814.75
434.79	812.75
434.92	798.50
435.05	889.50
435.18	798.25
435.31	832.50
435.44	873.00
435.57	823.25
435.70	815.00
435.84	786.50
435.97	882.50
436.10	929.00
436.23	801.25
436.36	778.25
436.49	799.25
436.62	835.50
436.75	810.25
436.88	834.00
437.01	795.00
437.14	778.25
437.28	760.75
437.41	793.75
437.54	881.25
437.67	849.00
437.80	792.25
437.93	769.00
438.06	933.75
438.19	866.50
438.32	766.25
438.45	778.25
438.58	844.25
438.72	893.50
438.85	853.75
438.98	801.00
439.11	836.50
439.24	888.75
439.37	872.25
439.50	839.00
439.63	866.25
439.76	805.00
439.89	794.25
440.02	796.75
440.15	844.25
440.29	885.75
440.42	812.50
440.55	804.50
440.68	880.50
440.81	928.50
440.94	822.75
441.07	813.75
441.20	913.75
441.33	836.00
441.46	803.50
441.59	791.75
441.72	813.50
441.85	825.25
441.99	847.50
442.12	850.50
442.25	905.25
442.38	840.25
442.51	832.25
442.64	776.25
442.77	827.75
442.90	799.50
443.03	774.25
443.16	796.25
443.29	826.25
443.42	892.25
443.55	809.00
443.68	817.25
443.82	765.25
443.95	800.75
444.08	794.00
444.21	816.75
444.34	780.00
444.47	817.00
444.60	813.25
444.73	827.75
444.86	817.25
444.99	890.25
445.12	835.25
445.25	819.75
445.38	832.00
445.51	857.00
445.64	824.50
445.78	807.00
445.91	763.50
446.04	930.50
446.17	863.00
446.30	762.00
446.43	840.50
446.56	819.25
446.69	783.00
446.82	793.50
446.95	861.00
447.08	861.75
447.21	818.25
447.34	797.25
447.47	862.75
447.60	847.25
447.73	809.00
447.86	844.25
447.99	826.25
448.13	837.75
448.26	849.50
448.39	805.75
448.52	851.00
448.65	856.75
448.78	812.00
448.91	806.25
449.04	846.50
449.17	802.50
449.30	833.00
449.43	822.25
449.56	819.75
449.69	882.50
449.82	815.50
449.95	767.00
450.08	879.25
450.21	847.75
450.34	816.75
450.47	803.25
450.60	862.25
450.73	822.00
450.87	803.50
451.00	828.25
451.13	854.75
451.26	975.00
451.39	795.00
451.52	832.75
451.65	805.25
451.78	798.50
451.91	800.25
452.04	788.75
452.17	896.50
452.30	894.75
452.43	799.75
452.56	800.50
452.69	866.25
452.82	781.75
452.95	845.50
453.08	784.25
453.21	742.50
453.34	855.50
453.47	795.00
453.60	863.00
453.73	909.75
453.86	853.25
453.99	833.25
454.12	827.00
454.25	809.25
454.38	830.25
454.52	778.75
454.65	801.25
454.78	794.75
454.91	768.00
455.04	789.75
455.17	772.25
455.30	789.25
455.43	871.25
455.56	804.75
455.69	773.25
455.82	847.25
455.95	831.50
456.08	771.00
456.21	762.50
456.34	765.00
456.47	751.25
456.60	793.00
456.73	785.75
456.86	801.00
456.99	835.75
457.12	787.00
457.25	791.50
457.38	876.25
457.51	850.50
457.64	828.75
457.77	796.50
457.90	815.75
458.03	807.50
458.16	799.50
458.29	807.25
458.42	810.25
458.55	768.25
458.68	781.00
458.81	802.75
458.94	869.25
459.07	918.00
459.20	769.75
459.33	782.00
459.46	881.25
459.59	908.50
459.72	875.75
459.85	815.50
459.98	894.50
460.11	847.00
460.24	807.25
460.37	773.25
460.50	852.00
460.63	830.00
460.76	801.00
460.89	815.25
461.02	842.00
461.15	845.75
461.28	804.75
461.41	799.00
461.54	888.50
461.67	778.25
461.80	817.00
461.93	854.00
462.06	840.50
462.19	861.25
462.32	801.75
462.45	788.25
462.58	844.00
462.71	793.00
462.84	801.25
462.97	752.25
463.10	810.50
463.23	830.25
463.36	848.75
463.49	817.25
463.62	771.00
463.75	836.00
463.88	807.25
464.01	810.00
464.14	776.75
464.27	905.75
464.40	810.00
464.53	811.75
464.66	840.25
464.79	835.50
464.92	820.00
465.05	784.75
465.18	811.75
465.31	822.00
465.44	804.00
465.57	786.50
465.70	800.25
465.83	917.75
465.96	824.00
466.09	791.75
466.22	856.00
466.35	833.00
466.48	785.75
466.61	788.50
466.74	806.00
466.87	857.75
467.00	838.75
467.13	837.25
467.26	853.00
467.39	770.25
467.52	764.75
467.65	796.50
467.78	874.00
467.91	817.25
468.04	812.50
468.17	785.50
468.30	809.00
468.43	778.00
468.56	783.00
468.69	826.25
468.82	844.00
468.95	773.25
469.08	799.75
469.21	812.00
469.34	844.50
469.47	919.75
469.60	884.25
469.73	811.00
469.86	833.75
469.99	863.00
470.11	785.25
470.24	798.00
470.37	848.75
470.50	814.75
470.63	792.50
470.76	819.00
470.89	851.75
471.02	926.75
471.15	794.75
471.28	806.00
471.41	910.75
471.54	834.50
471.67	802.25
471.80	746.50
471.93	858.50
472.06	832.50
472.19	807.75
472.32	784.00
472.45	920.75
472.58	869.50
472.71	823.50
472.84	791.00
472.97	788.00
473.10	774.25
473.23	840.00
473.36	764.00
473.49	874.50
473.62	859.50
473.74	841.25
473.87	849.75
474.00	795.75
474.13	785.75
474.26	822.25
474.39	833.25
474.52	812.25
474.65	801.25
474.78	811.50
474.91	770.50
475.04	837.75
475.17	932.50
475.30	842.25
475.43	825.50
475.56	877.50
475.69	818.25
475.82	844.75
475.95	783.25
476.08	881.75
476.21	822.75
476.34	857.75
476.46	852.50
476.59	876.50
476.72	805.25
476.85	799.00
476.98	781.75
477.11	869.75
477.24	820.75
477.37	756.50
477.50	790.50
477.63	822.50
477.76	778.25
477.89	747.75
478.02	773.00
478.15	812.75
478.28	801.50
478.41	837.75
478.54	800.50
478.66	857.00
478.79	808.50
478.92	808.50
479.05	811.00
479.18	823.50
479.31	788.25
479.44	793.50
479.57	784.25
479.70	794.50
479.83	823.75
479.96	802.50
480.09	826.50
480.22	950.75
480.35	929.75
480.48	858.50
480.60	827.25
480.73	796.00
480.86	843.00
480.99	806.25
481.12	800.00
481.25	817.00
481.38	880.25
481.51	808.00
481.64	818.75
481.77	837.00
481.90	813.50
482.03	813.75
482.16	796.75
482.29	882.75
482.41	822.50
482.54	843.50
482.67	790.50
482.80	828.75
482.93	859.00
483.06	780.50
483.19	866.75
483.32	844.00
483.45	819.00
483.58	822.50
483.71	847.25
483.84	854.50
483.97	831.75
484.09	814.00
484.22	792.75
484.35	790.00
484.48	762.00
484.61	799.50
484.74	797.25
484.87	838.00
485.00	763.75
485.13	825.25
485.26	775.75
485.39	841.50
485.52	810.00
485.64	879.75
485.77	849.00
485.90	856.25
486.03	773.25
486.16	831.25
486.29	784.25
486.42	816.75
486.55	825.25
486.68	798.75
486.81	831.50
486.94	828.00
487.06	794.25
487.19	836.25
487.32	834.75
487.45	824.00
487.58	793.25
487.71	812.50
487.84	767.00
487.97	847.75
488.10	863.00
488.23	797.75
488.35	763.25
488.48	813.75
488.61	773.75
488.74	795.00
488.87	802.75
489.00	823.75
489.13	908.50
489.26	842.00
489.39	845.75
489.52	858.75
489.64	847.00
489.77	819.50
489.90	822.00
490.03	810.75
490.16	798.00
490.29	796.50
490.42	793.50
490.55	827.25
490.68	788.00
490.81	797.50
490.93	760.25
491.06	878.75
491.19	834.50
491.32	829.25
491.45	835.75
491.58	773.25
491.71	813.50
491.84	794.25
491.97	793.75
492.09	876.00
492.22	839.00
492.35	826.00
492.48	858.50
492.61	833.25
492.74	818.00
492.87	831.00
493.00	821.25
493.12	795.50
493.25	820.50
493.38	808.75
493.51	777.00
493.64	774.50
493.77	805.50
493.90	834.50
494.03	831.50
494.16	876.00
494.28	877.50
494.41	810.25
494.54	815.75
494.67	928.75
494.80	888.75
494.93	815.75
495.06	834.00
495.19	849.00
495.31	824.25
495.44	803.25
495.57	790.50
495.70	843.00
495.83	810.75
495.96	771.50
496.09	822.50
496.22	884.50
496.34	914.25
496.47	800.50
496.60	829.25
496.73	867.50
496.86	864.00
496.99	782.25
497.12	817.25
497.24	765.25
497.37	831.00
497.50	809.50
497.63	792.00
497.76	819.25
497.89	880.75
498.02	847.25
498.15	735.75
498.27	818.75
498.40	864.00
498.53	891.75
498.66	831.75
498.79	865.00
498.92	785.00
499.05	835.00
499.17	821.75
499.30	858.25
499.43	899.50
499.56	840.75
499.69	763.75
499.82	840.75
499.95	803.00
500.07	793.00
500.20	814.75
500.33	860.25
500.46	953.50
500.59	819.75
500.72	821.25
500.85	866.75
500.97	877.00
501.10	865.50
501.23	783.25
501.36	837.25
501.49	894.25
501.62	842.50
501.75	822.25
501.87	868.75
502.00	772.50
502.13	828.00
502.26	829.25
502.39	800.00
502.52	808.50
502.64	773.50
502.77	786.00
502.90	850.00
503.03	822.75
503.16	794.50
503.29	784.50
503.42	869.50
503.54	825.25
503.67	825.75
503.80	824.75
503.93	866.75
504.06	780.50
504.19	812.00
504.31	869.25
504.44	835.25
504.57	838.25
504.70	831.75
504.83	780.25
504.96	844.00
505.08	817.25
505.21	828.50
505.34	923.50
505.47	876.25
505.60	860.00
505.73	877.25
505.85	865.25
505.98	944.00
506.11	825.00
506.24	792.00
506.37	790.50
506.50	816.50
506.62	860.25
506.75	803.00
506.88	786.75
507.01	829.75
507.14	770.50
507.27	818.25
507.39	794.50
507.52	796.25
507.65	807.00
507.78	843.25
507.91	787.50
508.04	878.25
508.16	874.50
508.29	838.00
508.42	808.25
508.55	795.50
508.68	795.75
508.81	862.25
508.93	792.00
509.06	806.25
509.19	859.25
509.32	849.00
509.45	827.25
509.57	846.50
509.70	797.25
509.83	824.50
509.96	785.25
510.09	820.00
510.22	820.25
510.34	815.50
510.47	808.25
510.60	918.00
510.73	830.25
510.86	838.75
510.98	814.50
511.11	798.00
511.24	866.00
511.37	857.25
511.50	809.50
511.63	835.50
511.75	819.75
511.88	818.25
512.01	840.75
512.14	827.25
512.27	839.50
512.39	815.75
512.52	810.75
512.65	832.25
512.78	788.75
512.91	817.75
513.03	820.75
513.16	863.75
513.29	825.50
513.42	803.25
513.55	778.25
513.67	845.50
513.80	769.00
513.93	798.25
514.06	794.50
514.19	835.75
514.31	831.25
514.44	854.25
514.57	808.75
514.70	835.00
514.83	871.75
514.95	801.75
515.08	825.25
515.21	850.75
515.34	825.75
515.47	824.25
515.59	791.25
515.72	844.75
515.85	839.75
515.98	871.25
516.11	834.00
516.23	854.75
516.36	893.00
516.49	845.75
516.62	820.50
516.75	869.75
516.87	874.00
517.00	792.75
517.13	842.75
517.26	874.50
517.39	845.75
517.51	762.00
517.64	814.75
517.77	896.00
517.90	800.50
518.02	811.50
518.15	787.50
518.28	742.25
518.41	823.75
518.54	830.00
518.66	820.00
518.79	777.25
518.92	803.25
519.05	791.50
519.18	815.00
519.30	849.75
519.43	777.00
519.56	791.75
519.69	797.75
519.81	866.00
519.94	805.75
520.07	749.00
520.20	806.50
520.33	834.50
520.45	879.00
520.58	839.75
520.71	842.75
520.84	863.50
520.96	835.00
521.09	826.50
521.22	798.75
521.35	853.50
521.48	853.75
521.60	798.50
521.73	818.00
521.86	877.00
521.99	900.50
522.11	830.75
522.24	823.00
522.37	855.00
522.50	839.25
522.62	881.75
522.75	766.75
522.88	826.50
523.01	795.75
523.14	838.00
523.26	826.75
523.39	877.00
523.52	805.25
523.65	905.50
523.77	856.50
523.90	827.75
524.03	807.00
524.16	805.00
524.28	808.25
524.41	814.00
524.54	818.50
524.67	785.25
524.79	805.75
524.92	846.00
525.05	894.00
525.18	791.00
525.31	854.75
525.43	780.50
525.56	934.50
525.69	804.50
525.82	753.25
525.94	853.25
526.07	860.25
526.20	843.25
526.33	854.75
526.45	937.50
526.58	919.00
526.71	835.25
526.84	818.50
526.96	826.00
527.09	793.00
527.22	807.75
527.35	804.75
527.47	774.00
527.60	884.50
527.73	779.75
527.86	859.00
527.98	843.75
528.11	846.25
528.24	799.25
528.37	821.75
528.49	783.00
528.62	822.00
528.75	853.25
528.88	796.00
529.00	854.25
529.13	873.75
529.26	819.50
529.39	847.25
529.51	953.25
529.64	916.75
529.77	797.25
529.90	812.00
530.02	815.00
530.15	792.00
530.28	753.50
530.40	792.25
530.53	817.50
530.66	836.25
530.79	802.50
530.91	817.00
531.04	800.75
531.17	821.75
531.30	821.25
531.42	824.75
531.55	831.50
531.68	888.25
531.81	792.00
531.93	820.25
532.06	824.00
532.19	783.50
532.31	819.25
532.44	804.50
532.57	846.50
532.70	794.25
532.82	828.75
532.95	855.50
533.08	882.25
533.21	849.25
533.33	795.75
533.46	796.00
533.59	808.25
533.71	926.75
533.84	835.00
533.97	802.50
534.10	798.50
534.22	784.25
534.35	817.25
534.48	825.50
534.61	847.25
534.73	761.00
534.86	781.75
534.99	828.25
535.11	878.50
535.24	837.00
535.37	793.00
535.50	779.75
535.62	784.25
535.75	879.75
535.88	824.50
536.00	783.25
536.13	796.50
536.26	804.00
536.39	793.50
536.51	765.75
536.64	841.50
536.77	822.00
536.89	817.00
537.02	820.00
537.15	839.50
537.28	815.50
537.40	835.25
537.53	793.75
537.66	873.00
537.78	831.25
537.91	774.25
538.04	794.50
538.17	851.00
538.29	828.00
538.42	894.75
538.55	872.00
538.67	841.75
538.80	788.00
538.93	832.00
539.05	821.00
539.18	876.50
539.31	853.25
539.44	823.00
539.56	753.00
539.69	813.75
539.82	805.25
539.94	815.00
540.07	789.25
540.20	889.50
540.32	792.75
540.45	811.75
540.58	809.50
540.71	867.50
540.83	770.25
540.96	805.25
541.09	804.25
541.21	889.00
541.34	879.00
541.47	789.75
541.59	821.50
541.72	905.25
541.85	966.50
541.98	869.00
542.10	816.00
542.23	831.00
542.36	945.75
542.48	833.50
542.61	814.00
542.74	776.50
542.86	800.50
542.99	812.00
543.12	794.25
543.24	827.00
543.37	764.25
543.50	805.50
543.62	792.00
543.75	811.25
543.88	801.25
544.01	829.25
544.13	839.25
544.26	842.50
544.39	786.50
544.51	796.25
544.64	777.25
544.77	835.50
544.89	798.25
545.02	823.50
545.15	792.50
545.27	897.25
545.40	870.00
545.53	845.25
545.65	838.75
545.78	760.75
545.91	774.00
546.03	801.00
546.16	815.25
546.29	802.25
546.41	774.00
546.54	807.00
546.67	785.75
546.79	851.25
546.92	890.75
547.05	769.75
547.17	822.00
547.30	793.75
547.43	838.75
547.56	777.75
547.68	808.50
547.81	775.75
547.94	841.00
548.06	805.50
548.19	777.75
548.32	875.25
548.44	831.25
548.57	837.75
548.70	852.25
548.82	861.75
548.95	843.25
549.08	811.75
549.20	798.25
549.33	910.25
549.45	831.75
549.58	808.25
549.71	767.00
549.83	858.75
549.96	777.00
550.09	812.50
550.21	799.50
550.34	830.50
550.47	809.75
550.59	799.50
550.72	746.50
550.85	808.75
550.97	875.50
551.10	795.75
551.23	805.75
551.35	879.75
551.48	832.00
551.61	803.50
551.73	800.50
551.86	883.00
551.99	881.75
552.11	817.00
552.24	852.50
552.37	828.00
552.49	788.00
552.62	799.00
552.75	845.25
552.87	799.50
553.00	790.50
553.12	823.00
553.25	807.00
553.38	835.25
553.50	871.00
553.63	813.25
553.76	752.50
553.88	814.50
554.01	809.00
554.14	814.75
554.26	844.25
554.39	894.00
554.52	817.00
554.64	815.00
554.77	786.75
554.89	842.50
555.02	858.50
555.15	833.75
555.27	817.75
555.40	818.50
555.53	866.75
555.65	805.75
555.78	777.25
555.91	840.00
556.03	895.25
556.16	786.50
556.29	816.00
556.41	873.75
556.54	876.00
556.66	813.75
556.79	800.25
556.92	822.00
557.04	831.50
557.17	797.00
557.30	794.00
557.42	799.00
557.55	807.25
557.67	825.25
557.80	802.50
557.93	821.00
558.05	830.00
558.18	785.00
558.31	820.50
558.43	857.50
558.56	838.50
558.68	815.50
558.81	793.00
558.94	803.75
559.06	926.25
559.19	804.50
559.32	796.25
559.44	778.25
559.57	816.50
559.69	786.50
559.82	788.25
559.95	805.50
560.07	805.50
560.20	738.50
560.33	818.50
560.45	829.25
560.58	766.25
560.70	806.75
560.83	772.25
560.96	796.00
561.08	808.75
561.21	826.75
561.33	778.75
561.46	756.75
561.59	846.25
561.71	792.00
561.84	817.50
561.97	779.50
562.09	836.00
562.22	783.00
562.34	777.25
562.47	847.75
562.60	837.00
562.72	801.50
562.85	805.25
562.97	803.50
563.10	796.50
563.23	775.75
563.35	780.00
563.48	829.00
563.60	813.00
563.73	836.25
563.86	764.75
563.98	785.50
564.11	810.00
564.23	799.50
564.36	863.25
564.49	806.00
564.61	860.00
564.74	813.50
564.86	788.25
564.99	857.75
565.12	831.25
565.24	862.50
565.37	852.00
565.49	861.50
565.62	879.25
565.75	838.50
565.87	781.50
566.00	944.75
566.12	871.00
566.25	817.50
566.38	844.00
566.50	815.25
566.63	850.50
566.75	802.75
566.88	778.50
567.01	777.00
567.13	799.50
567.26	802.50
567.38	777.25
567.51	857.75
567.64	783.25
567.76	821.00
567.89	822.75
568.01	779.25
568.14	776.00
568.26	812.75
568.39	813.50
568.52	804.50
568.64	843.75
568.77	801.00
568.89	787.75
569.02	788.50
569.15	811.50
569.27	796.75
569.40	823.00
569.52	842.75
569.65	792.75
569.77	796.25
569.90	755.50
570.03	754.50
570.15	878.25
570.28	807.25
570.40	805.25
570.53	797.25
570.66	868.25
570.78	856.00
570.91	820.00
571.03	775.75
571.16	807.25
571.28	762.25
571.41	750.50
571.54	763.25
571.66	755.00
571.79	783.50
571.91	784.25
572.04	763.50
572.16	815.50
572.29	837.50
572.42	786.50
572.54	824.00
572.67	783.75
572.79	820.00
572.92	808.50
573.04	835.00
573.17	850.50
573.29	806.75
573.42	784.50
573.55	834.50
573.67	830.00
573.80	800.75
573.92	776.00
574.05	808.75
574.17	864.50
574.30	802.50
574.43	802.00
574.55	782.25
574.68	816.50
574.80	789.50
574.93	798.75
575.05	761.00
575.18	797.25
575.30	793.75
575.43	831.25
575.56	855.50
575.68	825.50
575.81	783.25
575.93	776.75
576.06	821.50
576.18	837.00
576.31	801.50
576.43	794.25
576.56	885.50
576.69	872.25
576.81	817.00
576.94	788.25
577.06	806.50
577.19	843.75
577.31	817.50
577.44	830.50
577.56	846.75
577.69	822.50
577.82	802.00
577.94	781.75
578.07	759.25
578.19	824.50
578.32	847.00
578.44	782.75
578.57	799.00
578.69	854.75
578.82	813.50
578.94	842.50
579.07	865.75
579.19	849.75
579.32	822.00
579.45	828.25
579.57	803.75
579.70	763.25
579.82	814.75
579.95	798.00
580.07	873.75
580.20	804.50
580.32	811.25
580.45	831.25
580.57	846.00
580.70	813.75
580.82	825.75
580.95	842.75
581.08	772.50
581.20	857.25
581.33	803.50
581.45	823.00
581.58	816.75
581.70	825.75
581.83	739.00
581.95	819.75
582.08	829.00
582.20	797.00
582.33	813.50
582.45	785.75
582.58	796.75
582.70	825.50
582.83	782.50
582.95	796.75
583.08	854.50
583.21	857.25
583.33	820.00
583.46	793.75
583.58	769.00
583.71	851.75
583.83	830.25
583.96	829.75
584.08	831.25
584.21	835.25
584.33	833.75
584.46	797.25
584.58	775.75
584.71	855.50
584.83	842.25
584.96	813.25
585.08	789.25
585.21	907.50
585.33	868.00
585.46	846.75
585.58	850.50
585.71	797.75
585.83	810.75
585.96	851.00
586.08	836.50
586.21	833.00
586.33	853.50
586.46	773.25
586.59	835.00
586.71	784.50
586.84	834.75
586.96	817.25
587.09	758.50
587.21	791.25
587.34	844.75
587.46	787.50
587.59	766.00
587.71	805.00
587.84	791.75
587.96	761.75
588.09	774.25
588.21	830.25
588.34	802.75
588.46	826.50
588.59	785.25
588.71	827.75
588.84	822.75
588.96	803.50
589.09	909.00
589.21	806.75
589.34	785.75
589.46	800.75
589.59	821.50
589.71	857.50
589.84	763.25
589.96	788.75
590.09	802.25
590.21	838.00
590.34	824.00
590.46	822.00
590.59	794.25
590.71	803.50
590.84	844.50
590.96	790.00
591.09	838.00
591.21	818.50
591.34	792.00
591.46	797.75
591.59	864.75
591.71	837.25
591.83	808.25
591.96	762.50
592.08	797.50
592.21	839.75
592.33	817.75
592.46	802.75
592.58	825.50
592.71	848.00
592.83	888.25
592.96	845.25
593.08	859.00
593.21	782.00
593.33	768.50
593.46	799.00
593.58	803.00
593.71	841.75
593.83	862.00
593.96	779.75
594.08	924.75
594.21	800.75
594.33	798.00
594.46	786.00
594.58	757.00
594.71	744.25
594.83	819.75
594.96	806.00
595.08	963.75
595.20	841.75
595.33	825.75
595.45	789.75
595.58	904.75
595.70	836.25
595.83	797.50
595.95	811.75
596.08	832.00
596.20	768.00
596.33	763.25
596.45	812.00
596.58	778.75
596.70	766.50
596.83	790.00
596.95	792.75
597.08	814.25
597.20	772.25
597.32	783.75
597.45	817.75
597.57	795.50
597.70	848.75
597.82	792.50
597.95	814.50
598.07	816.50
598.20	821.50
598.32	809.75
598.45	798.00
598.57	850.75
598.70	863.25
598.82	795.75
598.94	793.75
599.07	852.75
599.19	816.50
599.32	791.00
599.44	721.00
599.57	846.50
599.69	827.50
599.82	805.75
599.94	780.75
600.07	840.75
600.19	827.00
600.31	786.25
600.44	850.75
600.56	923.75
600.69	898.25
600.81	788.00
600.94	800.00
601.06	815.50
601.19	848.00
601.31	857.00
601.44	771.50
601.56	869.75
601.68	846.75
601.81	822.25
601.93	827.50
602.06	846.00
602.18	774.75
602.31	812.75
602.43	870.00
602.56	851.50
602.68	812.00
602.80	807.00
602.93	822.25
603.05	783.25
603.18	816.75
603.30	767.50
603.43	772.75
603.55	803.75
603.68	821.75
603.80	825.50
603.92	822.00
604.05	798.75
604.17	788.25
604.30	770.75
604.42	795.50
604.55	791.50
604.67	834.25
604.79	786.50
604.92	804.50
605.04	803.25
605.17	801.00
605.29	788.25
605.42	786.00
605.54	868.25
605.66	824.75
605.79	830.50
605.91	811.50
606.04	812.75
606.16	792.25
606.29	821.75
606.41	779.75
606.53	791.50
606.66	757.25
606.78	798.00
606.91	790.25
607.03	793.00
607.16	787.75
607.28	771.00
607.40	816.25
607.53	831.75
607.65	779.50
607.78	783.75
607.90	816.25
608.03	917.00
608.15	812.75
608.27	824.25
608.40	769.75
608.52	829.25
608.65	804.00
608.77	844.25
608.89	816.25
609.02	873.50
609.14	888.00
609.27	830.25
609.39	848.50
609.52	787.50
609.64	747.00
609.76	791.75
609.89	802.00
610.01	865.25
610.14	835.75
610.26	802.00
610.38	781.00
610.51	847.50
610.63	790.75
610.76	774.25
610.88	831.50
611.01	867.50
611.13	908.25
611.25	848.50
611.38	779.50
611.50	807.50
611.63	838.25
611.75	814.25
611.87	816.50
612.00	791.00
612.12	849.75
612.25	798.25
612.37	787.50
612.49	872.00
612.62	859.75
612.74	883.50
612.87	817.75
612.99	809.75
613.11	764.75
613.24	806.50
613.36	794.75
613.49	823.50
613.61	813.00
613.73	794.00
613.86	851.00
613.98	772.75
614.11	842.25
614.23	848.50
614.35	855.00
614.48	853.00
614.60	822.75
614.72	811.00
614.85	831.00
614.97	821.75
615.10	819.50
615.22	796.75
615.34	816.25
615.47	862.50
615.59	789.50
615.72	811.00
615.84	819.75
615.96	787.25
616.09	888.75
616.21	811.25
616.34	797.75
616.46	810.25
616.58	846.00
616.71	840.25
616.83	849.00
616.95	842.25
617.08	838.75
617.20	804.75
617.33	774.50
617.45	794.75
617.57	839.50
617.70	823.75
617.82	793.25
617.95	816.25
618.07	879.50
618.19	830.00
618.32	820.50
618.44	792.75
618.56	771.00
618.69	750.00
618.81	758.50
618.94	838.00
619.06	807.00
619.18	805.50
619.31	776.00
619.43	783.25
619.55	825.25
619.68	824.75
619.80	779.50
619.92	833.75
620.05	930.00
620.17	864.00
620.30	803.75
620.42	826.25
620.54	847.25
620.67	791.00
620.79	817.00
620.91	821.50
621.04	873.75
621.16	801.00
621.29	783.75
621.41	757.75
621.53	791.50
621.66	791.25
621.78	797.00
621.90	843.25
622.03	904.00
622.15	822.25
622.27	808.00
622.40	823.25
622.52	785.75
622.64	788.75
622.77	768.50
622.89	822.75
623.02	843.00
623.14	823.75
623.26	830.75
623.39	834.75
623.51	865.00
623.63	797.00
623.76	778.25
623.88	866.00
624.00	812.25
624.13	770.00
624.25	769.50
624.37	766.75
624.50	855.75
624.62	826.75
624.75	768.25
624.87	778.25
624.99	830.75
625.12	793.25
625.24	794.50
625.36	886.25
625.49	849.75
625.61	835.75
625.73	816.50
625.86	857.25
625.98	811.75
626.10	789.75
626.23	761.50
626.35	827.00
626.47	789.25
626.60	776.25
626.72	786.00
626.84	783.00
626.97	825.25
627.09	806.25
627.21	800.50
627.34	920.25
627.46	909.00
627.58	819.25
627.71	828.25
627.83	847.00
627.95	766.00
628.08	808.50
628.20	844.50
628.32	755.50
628.45	733.25
628.57	743.50
628.69	781.00
628.82	830.25
628.94	868.00
629.06	806.00
629.19	793.50
629.31	842.00
629.43	781.00
629.56	821.25
629.68	811.50
629.80	853.75
629.93	767.50
630.05	782.25
630.17	771.25
630.30	791.50
630.42	785.50
630.54	825.50
630.67	808.50
630.79	791.50
630.91	932.75
631.04	827.25
631.16	817.25
631.28	820.50
631.41	783.50
631.53	767.25
631.65	819.00
631.78	828.25
631.90	806.25
632.02	806.25
632.14	730.50
632.27	867.25
632.39	814.00
632.51	792.50
632.64	848.25
632.76	810.00
632.88	791.00
633.01	804.75
633.13	804.50
633.25	818.75
633.38	915.00
633.50	754.50
633.62	753.25
633.75	744.75
633.87	737.25
633.99	816.25
634.11	757.00
634.24	793.50
634.36	802.75
634.48	800.00
634.61	789.25
634.73	833.75
634.85	787.00
634.98	782.75
635.10	787.50
635.22	801.00
635.35	909.75
635.47	815.50
635.59	799.50
635.71	828.50
635.84	848.75
635.96	789.25
636.08	838.50
636.21	779.75
636.33	814.00
636.45	803.50
636.58	780.50
636.70	748.00
636.82	825.75
636.94	777.75
637.07	752.00
637.19	835.25
637.31	836.00
637.44	831.50
637.56	752.50
637.68	820.00
637.81	822.25
637.93	815.25
638.05	767.75
638.17	860.50
638.30	919.50
638.42	807.50
638.54	780.50
638.67	810.75
638.79	811.50
638.91	778.50
639.03	800.00
639.16	794.00
639.28	800.25
639.40	799.00
639.53	788.50
639.65	836.50
639.77	800.50
639.89	803.25
640.02	800.00
640.14	812.25
640.26	766.00
640.39	827.75
640.51	781.00
640.63	822.50
640.75	843.50
640.88	799.00
641.00	778.75
641.12	779.25
641.24	876.25
641.37	787.50
641.49	769.75
641.61	904.50
641.74	784.00
641.86	820.75
641.98	764.50
642.10	820.00
642.23	828.50
642.35	784.75
642.47	820.75
642.60	819.25
642.72	835.75
642.84	742.00
642.96	767.75
643.09	769.25
643.21	765.75
643.33	763.00
643.45	766.75
643.58	849.75
643.70	874.25
643.82	782.50
643.94	789.25
644.07	805.75
644.19	812.50
644.31	820.75
644.44	803.75
644.56	794.25
644.68	751.50
644.80	766.50
644.93	756.75
645.05	768.75
645.17	810.25
645.29	811.25
645.42	812.50
645.54	810.00
645.66	826.25
645.78	798.50
645.91	778.00
646.03	825.00
646.15	874.00
646.27	784.50
646.40	812.25
646.52	846.50
646.64	850.50
646.76	803.00
646.89	745.25
647.01	829.00
647.13	830.75
647.25	839.00
647.38	785.25
647.50	759.75
647.62	838.25
647.74	759.00
647.87	773.00
647.99	812.00
648.11	830.75
648.23	787.25
648.36	755.00
648.48	860.50
648.60	810.25
648.72	781.50
648.85	770.00
648.97	852.75
649.09	826.50
649.21	788.00
649.34	812.25
649.46	811.25
649.58	818.00
649.70	827.00
649.83	782.50
649.95	816.00
650.07	828.50
650.19	836.25
650.32	806.75
650.44	857.50
650.56	818.50
650.68	791.00
650.81	791.50
650.93	785.00
651.05	864.00
651.17	776.75
651.29	831.00
651.42	802.25
651.54	828.50
651.66	770.75
651.78	773.75
651.91	823.00
652.03	916.25
652.15	821.25
652.27	769.00
652.40	815.75
652.52	799.50
652.64	822.50
652.76	786.25
652.88	892.00
653.01	798.25
653.13	763.00
653.25	737.50
653.37	823.75
653.50	841.00
653.62	818.75
653.74	747.75
653.86	843.25
653.98	833.75
654.11	766.25
654.23	790.00
654.35	783.25
654.47	918.75
654.60	800.50
654.72	789.25
654.84	760.75
654.96	842.75
655.08	784.25
655.21	820.75
655.33	800.25
655.45	848.50
655.57	808.50
655.70	796.00
655.82	848.50
655.94	879.00
656.06	833.25
656.18	766.50
656.31	854.50
656.43	830.75
656.55	771.00
656.67	790.25
656.79	801.25
656.92	849.75
657.04	820.25
657.16	786.00
657.28	923.25
657.40	811.75
657.53	839.25
657.65	796.25
657.77	856.00
657.89	856.75
658.01	790.50
658.14	772.75
658.26	836.25
658.38	788.25
658.50	756.00
658.62	761.50
658.75	926.25
658.87	847.00
658.99	828.50
659.11	770.00
659.23	843.50
659.36	913.50
659.48	848.25
659.60	828.25
659.72	814.50
659.84	803.25
659.97	823.50
660.09	835.25
660.21	906.75
660.33	861.75
660.45	752.50
660.58	725.75
660.70	778.00
660.82	797.25
660.94	764.25
661.06	798.00
661.19	866.75
661.31	849.75
661.43	805.50
661.55	798.75
661.67	842.75
661.80	866.00
661.92	805.00
662.04	813.25
662.16	804.75
662.28	863.75
662.40	817.00
662.53	806.00
662.65	826.25
662.77	783.50
662.89	808.75
663.01	779.75
663.14	805.75
663.26	838.25
663.38	794.00
663.50	764.75
663.62	781.50
663.74	808.50
663.87	784.25
663.99	812.75
664.11	845.00
664.23	918.75
664.35	801.75
664.48	786.25
664.60	807.00
664.72	794.75
664.84	762.75
664.96	794.00
665.08	853.75
665.21	831.00
665.33	834.00
665.45	746.75
665.57	804.50
665.69	887.75
665.81	806.50
665.94	766.00
666.06	768.75
666.18	822.75
666.30	796.00
666.42	778.75
666.54	815.00
666.67	835.00
666.79	775.50
666.91	832.75
667.03	789.25
667.15	756.25
667.27	787.75
667.40	762.50
667.52	791.25
667.64	841.25
667.76	787.75
667.88	767.75
668.00	839.50
668.13	845.00
668.25	761.75
668.37	771.75
668.49	786.50
668.61	847.00
668.73	796.75
668.85	812.75
668.98	821.25
669.10	813.75
669.22	787.50
669.34	789.00
669.46	840.25
669.58	790.75
669.71	803.00
669.83	809.00
669.95	784.00
670.07	806.00
670.19	781.75
670.31	787.75
670.43	783.00
670.56	813.25
670.68	858.75
670.80	823.50
670.92	808.00
671.04	863.00
671.16	789.00
671.28	779.00
671.41	791.50
671.53	838.75
671.65	793.00
671.77	789.50
671.89	940.75
672.01	897.50
672.13	842.00
672.26	778.25
672.38	810.00
672.50	775.25
672.62	797.00
672.74	818.50
672.86	800.25
672.98	812.50
673.11	809.00
673.23	812.50
673.35	870.75
673.47	804.00
673.59	801.50
673.71	769.75
673.83	836.00
673.96	917.50
674.08	796.50
674.20	769.75
674.32	797.00
674.44	801.25
674.56	818.50
674.68	817.00
674.80	850.00
674.93	804.25
675.05	797.50
675.17	807.75
675.29	837.00
675.41	846.25
675.53	804.00
675.65	794.00
675.77	794.25
675.90	854.00
676.02	778.50
676.14	769.25
676.26	870.25
676.38	899.00
676.50	807.75
676.62	836.00
676.74	768.25
676.87	785.25
676.99	817.00
677.11	852.75
677.23	819.50
677.35	839.00
677.47	762.25
677.59	780.00
677.71	829.75
677.83	841.50
677.96	804.75
678.08	801.50
678.20	805.25
678.32	776.25
678.44	804.75
678.56	807.75
678.68	938.50
678.80	841.75
678.93	793.75
679.05	814.25
679.17	797.00
679.29	855.50
679.41	803.75
679.53	776.25
679.65	783.25
679.77	802.75
679.89	804.50
680.01	832.00
680.14	841.50
680.26	752.00
680.38	796.50
680.50	832.50
680.62	888.00
680.74	830.25
680.86	794.00
680.98	813.50
681.10	825.75
681.22	895.50
681.35	781.25
681.47	793.50
681.59	776.25
681.71	886.75
681.83	808.75
681.95	782.25
682.07	858.75
682.19	820.00
682.31	784.25
682.43	767.75
682.56	844.75
682.68	767.75
682.80	783.75
682.92	826.25
683.04	800.25
683.16	797.25
683.28	777.75
683.40	826.75
683.52	801.75
683.64	821.75
683.76	776.25
683.89	793.50
684.01	803.50
684.13	869.25
684.25	813.75
684.37	809.25
684.49	852.00
684.61	798.75
684.73	809.00
684.85	795.75
684.97	777.25
685.09	862.25
685.21	783.25
685.34	809.50
685.46	932.00
685.58	824.75
685.70	818.00
685.82	847.25
685.94	777.00
686.06	776.75
686.18	772.25
686.30	793.50
686.42	765.00
686.54	837.00
686.66	773.75
686.79	869.75
686.91	833.75
687.03	913.25
687.15	836.00
687.27	805.00
687.39	806.00
687.51	890.00
687.63	820.25
687.75	844.00
687.87	836.50
687.99	880.00
688.11	775.25
688.23	828.00
688.35	857.50
688.48	833.50
688.60	772.50
688.72	794.75
688.84	824.75
688.96	841.75
689.08	806.50
689.20	802.75
689.32	929.00
689.44	827.50
689.56	761.50
689.68	783.00
689.80	796.50
689.92	778.00
690.04	792.50
690.16	841.75
690.28	827.75
690.41	830.50
690.53	777.00
690.65	844.50
690.77	856.50
690.89	855.75
691.01	817.25
691.13	787.00
691.25	771.00
691.37	796.00
691.49	755.00
691.61	748.25
691.73	876.50
691.85	805.25
691.97	790.75
692.09	775.00
692.21	851.50
692.33	879.25
692.45	826.75
692.57	791.25
692.70	805.50
692.82	835.00
692.94	749.00
693.06	776.75
693.18	818.75
693.30	795.50
693.42	786.50
693.54	818.25
693.66	833.00
693.78	827.75
693.90	794.25
694.02	810.75
694.14	829.00
694.26	798.00
694.38	818.75
694.50	822.75
694.62	818.25
694.74	771.75
694.86	769.00
694.98	813.25
695.10	823.50
695.22	862.75
695.34	785.00
695.46	786.75
695.58	798.25
695.71	826.00
695.83	784.75
695.95	782.00
696.07	866.75
696.19	780.25
696.31	787.00
696.43	769.75
696.55	883.00
696.67	817.25
696.79	794.00
696.91	804.50
697.03	786.00
697.15	882.00
697.27	816.25
697.39	782.00
697.51	839.00
697.63	774.75
697.75	774.00
697.87	806.25
697.99	762.25
698.11	735.00
698.23	771.75
698.35	781.75
698.47	788.75
698.59	823.25
698.71	793.75
698.83	842.50
698.95	777.75
699.07	807.00
699.19	785.50
699.31	805.50
699.43	774.25
699.55	831.50
699.67	794.50
699.79	791.75
699.91	785.50
700.03	804.25
700.15	800.25
700.27	763.75
700.39	799.00
700.51	768.25
700.63	791.00
700.75	790.75
700.87	823.75
700.99	786.75
701.11	828.50
701.24	806.00
701.36	845.00
701.48	844.00
701.60	826.75
701.72	778.25
701.84	869.00
701.96	817.50
702.08	805.25
702.20	894.50
702.32	846.50
702.44	839.50
702.56	806.75
702.68	802.00
702.80	817.75
702.92	907.25
703.04	866.75
703.16	811.50
703.28	824.75
703.40	801.50
703.52	818.50
703.64	826.25
703.76	819.25
703.88	799.00
704.00	784.50
704.12	806.00
704.24	849.75
704.36	813.25
704.48	826.00
704.60	767.50
704.72	807.25
704.84	799.50
704.96	829.25
705.07	813.50
705.19	774.25
705.31	792.75
705.43	839.75
705.55	786.00
705.67	829.75
705.79	810.75
705.91	747.75
706.03	801.50
706.15	814.50
706.27	800.00
706.39	792.75
706.51	774.50
706.63	780.00
706.75	838.75
706.87	813.75
706.99	867.50
707.11	814.00
707.23	790.75
707.35	825.25
707.47	815.25
707.59	838.75
707.71	846.50
707.83	799.00
707.95	839.75
708.07	805.50
708.19	934.25
708.31	816.50
708.43	777.00
708.55	826.00
708.67	865.50
708.79	812.25
708.91	847.00
709.03	814.75
709.15	849.25
709.27	775.00
709.39	815.50
709.51	802.50
709.63	827.00
709.75	837.00
709.87	769.75
709.99	845.25
710.11	792.50
710.23	785.75
710.35	763.75
710.47	913.25
710.58	865.25
710.70	856.50
710.82	865.25
710.94	817.75
711.06	806.75
711.18	821.50
711.30	786.75
711.42	852.25
711.54	809.75
711.66	836.25
711.78	783.50
711.90	840.25
712.02	871.50
712.14	783.75
712.26	759.50
712.38	857.75
712.50	872.50
712.62	794.75
712.74	784.50
712.86	791.25
712.98	845.25
713.10	779.50
713.22	758.50
713.34	814.25
713.45	788.75
713.57	824.00
713.69	771.50
713.81	789.50
713.93	822.25
714.05	804.25
714.17	761.75
714.29	870.50
714.41	867.25
714.53	791.00
714.65	815.00
714.77	806.75
714.89	775.50
715.01	857.75
715.13	779.50
715.25	813.50
715.37	780.00
715.49	767.25
715.61	822.50
715.72	826.50
715.84	851.25
715.96	793.00
716.08	796.75
716.20	875.50
716.32	854.50
716.44	804.50
716.56	802.75
716.68	819.50
716.80	902.25
716.92	868.00
717.04	816.50
717.16	835.75
717.28	813.50
717.40	798.50
717.52	811.50
717.63	787.25
717.75	814.50
717.87	809.50
717.99	828.50
718.11	795.50
718.23	871.50
718.35	826.50
718.47	811.25
718.59	752.00
718.71	806.00
718.83	787.00
718.95	838.25
719.07	770.25
719.19	806.25
719.30	794.00
719.42	819.75
719.54	796.00
719.66	828.00
719.78	819.00
719.90	746.00
720.02	801.75
720.14	818.25
720.26	837.00
720.38	832.50
720.50	784.50
720.62	739.50
720.74	808.25
720.85	805.75
720.97	870.00
721.09	911.50
721.21	795.25
721.33	876.00
721.45	823.25
721.57	830.00
721.69	781.75
721.81	757.75
721.93	872.50
722.05	823.75
722.16	775.50
722.28	756.25
722.40	792.25
722.52	866.75
722.64	869.00
722.76	772.75
722.88	829.75
723.00	837.75
723.12	793.50
723.24	813.75
723.36	755.00
723.47	861.75
723.59	822.00
723.71	796.50
723.83	830.25
723.95	791.25
724.07	802.75
724.19	826.50
724.31	886.75
724.43	782.00
724.55	749.25
724.66	775.00
724.78	946.00
724.90	781.50
725.02	774.25
725.14	785.00
725.26	815.50
725.38	744.50
725.50	800.00
725.62	820.25
725.74	806.00
725.85	807.00
725.97	813.25
726.09	873.25
726.21	1145.50
726.33	852.00
726.45	803.50
726.57	780.25
726.69	814.50
726.81	805.50
726.92	808.00
727.04	822.00
727.16	828.00
727.28	796.25
727.40	795.50
727.52	817.50
727.64	929.25
727.76	894.00
727.88	831.50
727.99	773.00
728.11	779.25
728.23	800.00
728.35	794.50
728.47	795.00
728.59	800.00
728.71	820.50
728.83	815.25
728.94	836.50
729.06	902.00
729.18	880.25
729.30	844.00
729.42	820.00
729.54	885.75
729.66	905.00
729.78	811.25
729.90	817.75
730.01	793.50
730.13	742.00
730.25	800.25
730.37	800.75
730.49	831.25
730.61	824.75
730.73	821.00
730.84	844.00
730.96	831.75
731.08	831.25
731.20	822.50
731.32	812.25
731.44	964.00
731.56	809.25
731.68	773.00
731.79	822.00
731.91	789.00
732.03	789.00
732.15	801.00
732.27	774.75
732.39	797.00
732.51	843.75
732.62	788.50
732.74	800.50
732.86	858.50
732.98	820.25
733.10	809.75
733.22	820.75
733.34	838.75
733.45	758.50
733.57	809.25
733.69	773.75
733.81	799.00
733.93	825.00
734.05	741.75
734.17	803.50
734.28	813.75
734.40	810.00
734.52	795.75
734.64	795.75
734.76	886.75
734.88	818.00
735.00	782.00
735.11	802.00
735.23	864.50
735.35	802.50
735.47	749.75
735.59	839.25
735.71	810.75
735.83	821.75
735.94	833.75
736.06	821.25
736.18	858.25
736.30	844.00
736.42	837.25
736.54	833.50
736.65	846.50
736.77	960.00
736.89	859.75
737.01	815.00
737.13	920.25
737.25	748.75
737.36	766.00
737.48	807.00
737.60	821.75
737.72	788.25
737.84	806.50
737.96	854.50
738.08	802.25
738.19	892.00
738.31	795.50
738.43	818.75
738.55	824.00
738.67	819.25
738.79	779.00
738.90	805.50
739.02	828.25
739.14	795.25
739.26	806.50
739.38	810.00
739.50	846.50
739.61	814.25
739.73	810.75
739.85	814.75
739.97	827.25
740.09	870.50
740.20	767.50
740.32	817.50
740.44	843.75
740.56	782.75
740.68	802.50
740.80	813.00
740.91	811.75
741.03	857.75
741.15	847.75
741.27	811.25
741.39	865.50
741.51	819.00
741.62	848.75
741.74	814.00
741.86	814.75
741.98	783.75
742.10	821.00
742.21	825.25
742.33	819.75
742.45	782.50
742.57	867.25
742.69	809.25
742.80	850.25
742.92	813.25
743.04	809.50
743.16	795.00
743.28	867.50
743.40	780.75
743.51	785.25
743.63	781.00
743.75	819.50
743.87	809.25
743.99	831.00
744.10	812.75
744.22	817.75
744.34	794.25
744.46	841.00
744.58	832.50
744.69	751.75
744.81	807.75
744.93	766.25
745.05	777.75
745.17	890.00
745.28	892.50
745.40	840.75
745.52	803.75
745.64	824.25
745.76	850.50
745.87	800.50
745.99	784.00
746.11	823.00
746.23	784.00
746.35	806.50
746.46	791.00
746.58	919.50
746.70	830.75
746.82	813.75
746.94	807.25
747.05	786.25
747.17	765.75
747.29	761.50
747.41	803.25
747.53	937.00
747.64	810.75
747.76	859.50
747.88	859.50
748.00	854.75
748.12	829.25
748.23	815.50
748.35	837.75
748.47	868.25
748.59	856.25
748.70	800.00
748.82	785.25
748.94	775.50
749.06	795.50
749.18	804.50
749.29	785.25
749.41	828.75
749.53	818.25
749.65	801.75
749.76	845.25
749.88	818.00
750.00	837.50
750.12	849.00
750.24	833.50
750.35	814.00
750.47	773.75
750.59	827.00
750.71	803.00
750.82	843.50
750.94	787.00
751.06	797.00
751.18	783.25
751.30	856.00
751.41	847.75
751.53	842.25
751.65	786.75
751.77	796.00
751.88	828.75
752.00	854.00
752.12	767.00
752.24	861.00
752.35	836.25
752.47	844.50
752.59	855.75
752.71	893.75
752.83	793.00
752.94	879.75
753.06	791.00
753.18	818.25
753.30	796.25
753.41	748.25
753.53	795.00
753.65	803.25
753.77	864.50
753.88	790.75
754.00	820.75
754.12	817.50
754.24	885.50
754.35	784.75
754.47	757.50
754.59	839.75
754.71	844.50
754.82	823.75
754.94	804.75
755.06	865.25
755.18	839.00
755.29	835.00
755.41	798.00
755.53	847.75
755.65	794.50
755.76	831.50
755.88	816.00
756.00	887.00
756.12	800.00
756.23	717.75
756.35	782.50
756.47	854.75
756.59	789.75
756.70	786.25
756.82	788.00
756.94	799.75
757.06	825.00
757.17	831.00
757.29	818.00
757.41	770.75
757.53	838.00
757.64	821.25
757.76	821.50
757.88	836.50
758.00	832.25
758.11	794.00
758.23	767.50
758.35	832.00
758.47	784.75
758.58	835.50
758.70	768.75
758.82	798.00
758.94	767.75
759.05	817.00
759.17	767.25
759.29	809.75
759.40	867.75
759.52	797.00
759.64	797.75
759.76	820.75
759.87	833.50
759.99	830.25
760.11	793.50
760.23	818.25
760.34	850.75
760.46	827.75
760.58	808.25
760.70	810.25
760.81	870.00
760.93	828.25
761.05	841.00
761.16	830.25
761.28	804.25
761.40	794.75
761.52	782.50
761.63	874.25
761.75	842.25
761.87	796.00
761.98	772.25
762.10	840.25
762.22	813.00
762.34	851.25
762.45	796.25
762.57	855.25
762.69	943.00
762.81	819.00
762.92	835.00
763.04	773.00
763.16	840.00
763.27	852.75
763.39	801.75
763.51	845.75
763.63	830.50
763.74	789.25
763.86	758.00
763.98	790.75
764.09	808.50
764.21	823.75
764.33	778.25
764.44	793.75
764.56	824.00
764.68	796.75
764.80	814.25
764.91	761.50
765.03	874.75
765.15	796.50
765.26	805.50
765.38	770.75
765.50	847.25
765.62	825.75
765.73	811.75
765.85	826.00
765.97	772.00
766.08	822.50
766.20	825.00
766.32	830.00
766.43	856.25
766.55	839.25
766.67	810.50
766.79	819.25
766.90	782.25
767.02	760.75
767.14	776.00
767.25	775.25
767.37	904.25
767.49	836.75
767.60	810.50
767.72	864.25
767.84	845.50
767.95	800.50
768.07	780.00
768.19	838.50
768.31	843.75
768.42	826.25
768.54	799.50
768.66	807.00
768.77	843.25
768.89	814.75
769.01	793.75
769.12	847.00
769.24	826.25
769.36	789.00
769.47	774.50
769.59	774.75
769.71	837.00
769.82	804.50
769.94	796.75
770.06	769.00
770.17	852.50
770.29	813.00
770.41	841.25
770.53	838.75
770.64	783.25
770.76	816.00
770.88	835.25
770.99	844.50
771.11	782.50
771.23	823.00
771.34	818.75
771.46	908.25
771.58	877.25
771.69	840.50
771.81	813.50
771.93	863.75
772.04	784.75
772.16	848.25
772.28	818.00
772.39	866.00
772.51	810.00
772.63	833.00
772.74	810.75
772.86	808.00
772.98	929.50
773.09	791.25
773.21	799.00
773.33	838.00
773.44	835.25
773.56	816.75
773.68	810.75
773.79	861.75
773.91	806.75
774.03	823.75
774.14	810.50
774.26	874.00
774.38	782.25
774.49	777.25
774.61	810.00
774.73	819.75
774.84	811.25
774.96	790.50
775.08	824.00
775.19	845.75
775.31	866.75
775.43	814.75
775.54	794.50
775.66	770.25
775.77	860.25
775.89	778.50
776.01	846.25
776.12	872.25
776.24	832.50
776.36	779.75
776.47	779.50
776.59	830.75
776.71	870.25
776.82	759.25
776.94	775.50
777.06	801.00
777.17	878.25
777.29	780.25
777.41	783.50
777.52	844.75
777.64	810.50
777.75	851.25
777.87	761.50
777.99	803.50
778.10	869.75
778.22	801.25
778.34	823.00
778.45	810.00
778.57	855.25
778.69	853.50
778.80	826.50
778.92	919.00
779.04	836.75
779.15	813.75
779.27	859.50
779.38	850.50
779.50	869.25
779.62	761.25
779.73	806.75
779.85	757.00
779.97	920.75
780.08	815.25
780.20	815.75
780.31	856.25
780.43	859.75
780.55	808.75
780.66	828.50
780.78	842.50
780.90	921.50
781.01	800.75
781.13	809.00
781.25	800.75
781.36	879.50
781.48	798.25
781.59	821.25
781.71	850.25
781.83	842.75
781.94	784.75
782.06	804.00
782.18	868.25
782.29	794.50
782.41	769.50
782.52	864.25
782.64	870.25
782.76	835.75
782.87	831.00
782.99	814.25
783.10	943.75
783.22	965.75
783.34	821.50
783.45	829.75
783.57	827.00
783.69	799.00
783.80	825.50
783.92	855.00
784.03	811.50
784.15	789.25
784.27	819.00
784.38	793.50
784.50	797.00
784.61	815.25
784.73	793.25
784.85	801.25
784.96	789.25
785.08	874.75
785.19	870.25
785.31	806.75
785.43	793.25
785.54	780.50
785.66	853.00
785.77	836.00
785.89	850.00
786.01	768.25
786.12	813.25
786.24	829.75
786.35	880.25
786.47	829.00
786.59	806.00
786.70	778.25
786.82	829.00
786.93	836.75
787.05	810.50
787.17	828.00
787.28	813.00
787.40	831.75
787.51	840.00
787.63	839.75
787.75	778.25
787.86	836.25
787.98	853.25
788.09	821.50
788.21	839.50
788.33	856.50
788.44	841.50
788.56	799.75
788.67	850.75
788.79	808.75
788.91	817.50
789.02	803.50
789.14	809.25
789.25	910.25
789.37	836.50
789.48	797.25
789.60	831.25
789.72	788.50
789.83	846.75
789.95	831.25
790.06	771.00
790.18	791.75
790.30	849.75
790.41	828.00
790.53	810.00
790.64	781.25
790.76	787.75
790.87	815.25
790.99	817.50
791.11	824.00
791.22	797.75
791.34	819.50
791.45	857.50
791.57	847.75
791.68	809.00
791.80	790.50
791.92	855.25
792.03	800.50
792.15	776.50
792.26	809.75
792.38	775.25
792.49	842.50
792.61	810.25
792.73	826.00
792.84	815.50
792.96	915.25
793.07	815.50
793.19	1582.50
793.30	895.25
793.42	860.00
793.54	758.50
793.65	776.25
793.77	952.75
793.88	814.25
794.00	772.00
794.11	820.25
794.23	759.00
794.34	822.00
794.46	755.75
794.58	779.00
794.69	901.50
794.81	895.00
794.92	787.00
795.04	789.25
795.15	895.50
795.27	858.50
795.39	821.25
795.50	789.00
795.62	790.50
795.73	808.00
795.85	792.25
795.96	843.00
796.08	877.50
796.19	798.25
796.31	807.75
796.42	777.00
796.54	795.00
796.66	855.25
796.77	776.00
796.89	768.50
797.00	868.50
797.12	751.50
797.23	801.75
797.35	833.50
797.46	857.75
797.58	870.00
797.69	828.50
797.81	808.50
797.93	812.50
798.04	803.50
798.16	800.50
798.27	825.00
798.39	772.75
798.50	772.00
798.62	765.50
798.73	774.25
798.85	891.75
798.96	822.25
799.08	840.50
799.19	846.75
799.31	812.50
799.43	819.25
799.54	795.50
799.66	820.00
799.77	853.75
799.89	786.75
800.00	749.50
800.12	798.00
800.23	871.00
800.35	893.75
800.46	747.00
800.58	746.25
800.69	811.25
800.81	795.25
800.92	773.00
801.04	822.00
801.16	751.50
801.27	760.00
801.39	779.75
801.50	794.75
801.62	816.00
801.73	856.50
801.85	854.25
801.96	779.25
802.08	859.00
802.19	865.00
802.31	801.25
802.42	809.75
802.54	882.25
802.65	864.00
802.77	790.75
802.88	840.25
803.00	766.25
803.11	918.00
803.23	819.75
803.34	814.50
803.46	840.00
803.57	781.25
803.69	853.50
803.80	769.25
803.92	851.50
804.03	803.00
804.15	820.25
804.26	841.75
804.38	850.50
804.50	787.50
804.61	821.25
804.73	814.75
804.84	817.75
804.96	747.00
805.07	808.00
805.19	784.00
805.30	842.00
805.42	858.00
805.53	817.25
805.65	785.25
805.76	767.25
805.88	798.50
805.99	824.25
806.11	839.75
806.22	782.50
806.34	802.00
806.45	807.00
806.57	807.50
806.68	850.00
806.80	747.50
806.91	781.50
807.03	765.25
807.14	756.75
807.26	755.25
807.37	763.00
807.49	829.50
807.60	791.00
807.72	882.50
807.83	895.25
807.95	822.50
808.06	832.25
808.17	823.75
808.29	849.00
808.40	777.25
808.52	810.75
808.63	815.25
808.75	827.50
808.86	814.00
808.98	830.75
809.09	787.75
809.21	820.00
809.32	789.00
809.44	840.25
809.55	776.50
809.67	823.75
809.78	778.75
809.90	840.00
810.01	879.00
810.13	790.00
810.24	840.50
810.36	778.00
810.47	839.50
810.59	821.75
810.70	841.25
810.82	859.50
810.93	780.00
811.05	795.50
811.16	797.00
811.27	795.50
811.39	818.50
811.50	847.75
811.62	770.25
811.73	747.25
811.85	829.25
811.96	817.50
812.08	846.00
812.19	824.25
812.31	838.00
812.42	799.00
812.54	794.50
812.65	850.25
812.77	861.25
812.88	851.00
813.00	846.50
813.11	838.25
813.22	796.25
813.34	797.00
813.45	821.00
813.57	901.25
813.68	903.25
813.80	812.25
813.91	777.75
814.03	805.25
814.14	894.75
814.26	800.50
814.37	828.50
814.49	813.50
814.60	791.75
814.71	796.25
814.83	814.75
814.94	781.75
815.06	805.25
815.17	819.25
815.29	807.25
815.40	770.50
815.52	901.50
815.63	806.50
815.75	787.75
815.86	829.00
815.97	777.50
816.09	822.50
816.20	834.00
816.32	835.75
816.43	774.00
816.55	832.50
816.66	803.00
816.78	908.75
816.89	822.00
817.00	815.50
817.12	781.75
817.23	781.50
817.35	845.25
817.46	825.75
817.58	790.25
817.69	907.25
817.81	809.75
817.92	846.75
818.03	822.00
818.15	819.25
818.26	789.25
818.38	779.75
818.49	816.50
818.61	836.50
818.72	784.25
818.83	1743.00
818.95	942.50
819.06	793.75
819.18	805.00
819.29	828.25
819.41	811.50
819.52	832.75
819.64	822.25
819.75	797.00
819.86	769.00
819.98	809.00
820.09	839.25
820.21	814.75
820.32	785.00
820.44	847.50
820.55	881.75
820.66	796.75
820.78	848.50
820.89	808.00
821.01	836.75
821.12	826.00
821.23	837.00
821.35	802.75
821.46	863.00
821.58	824.75
821.69	808.25
821.81	791.50
821.92	879.50
822.03	818.00
822.15	825.75
822.26	775.75
822.38	780.75
822.49	837.00
822.61	834.25
822.72	835.75
822.83	873.50
822.95	818.25
823.06	826.25
823.18	869.25
823.29	893.50
823.40	848.00
823.52	818.75
823.63	778.00
823.75	915.50
823.86	819.00
823.97	771.00
824.09	852.75
824.20	788.00
824.32	831.00
824.43	810.50
824.55	864.25
824.66	914.00
824.77	814.25
824.89	834.25
825.00	882.75
825.12	834.50
825.23	850.00
825.34	775.50
825.46	788.00
825.57	854.25
825.69	814.75
825.80	756.75
825.91	798.00
826.03	773.25
826.14	833.00
826.26	787.00
826.37	827.25
826.48	808.50
826.60	824.25
826.71	797.25
826.83	831.00
826.94	836.25
827.05	864.50
827.17	864.50
827.28	810.75
827.39	802.75
827.51	780.75
827.62	820.25
827.74	821.25
827.85	809.50
827.96	793.25
828.08	824.00
828.19	913.25
828.31	808.00
828.42	761.50
828.53	833.75
828.65	871.25
828.76	877.25
828.87	845.00
828.99	782.25
