Wavelength (nm)	Intensity
377.35	789.00
377.48	588.00
377.62	619.00
377.75	610.00
377.88	827.00
378.02	802.00
378.15	811.50
378.28	784.00
378.41	844.50
378.55	839.50
378.68	812.00
378.81	791.00
378.95	820.00
379.08	807.00
379.21	767.50
379.35	834.00
379.48	833.50
379.61	882.50
379.74	810.50
379.88	787.50
380.01	869.00
380.14	916.50
380.28	841.00
380.41	782.00
380.54	824.00
380.68	833.00
380.81	757.00
380.94	827.50
381.07	876.50
381.21	893.50
381.34	809.50
381.47	757.00
381.61	952.00
381.74	813.00
381.87	781.00
382.00	836.50
382.14	888.50
382.27	849.50
382.40	799.00
382.54	869.50
382.67	870.50
382.80	781.50
382.93	795.00
383.07	823.50
383.20	823.00
383.33	847.50
383.47	793.00
383.60	766.00
383.73	956.00
383.86	835.00
384.00	800.50
384.13	799.50
384.26	848.50
384.40	862.50
384.53	813.00
384.66	862.00
384.79	836.00
384.93	794.00
385.06	798.50
385.19	819.50
385.33	926.00
385.46	857.00
385.59	786.00
385.72	830.50
385.86	765.50
385.99	810.00
386.12	809.50
386.25	776.00
386.39	858.00
386.52	878.00
386.65	802.50
386.79	798.00
386.92	797.50
387.05	900.50
387.18	780.00
387.32	781.00
387.45	846.00
387.58	817.00
387.71	797.50
387.85	790.00
387.98	833.00
388.11	840.50
388.25	829.50
388.38	815.50
388.51	843.50
388.64	849.00
388.78	786.00
388.91	768.00
389.04	819.50
389.17	922.50
389.31	815.00
389.44	844.50
389.57	875.00
389.70	841.00
389.84	797.00
389.97	788.50
390.10	797.50
390.24	839.50
390.37	813.00
390.50	791.00
390.63	872.50
390.77	821.50
390.90	825.50
391.03	820.00
391.16	771.00
391.30	807.00
391.43	809.00
391.56	808.50
391.69	794.50
391.83	860.00
391.96	826.00
392.09	804.50
392.22	895.00
392.36	829.50
392.49	776.00
392.62	803.50
392.75	845.00
392.89	885.00
393.02	775.00
393.15	801.50
393.28	772.50
393.42	902.00
393.55	772.50
393.68	798.50
393.81	740.00
393.95	805.00
394.08	793.00
394.21	798.50
394.34	853.50
394.48	852.50
394.61	849.00
394.74	829.00
394.87	863.00
395.01	820.00
395.14	848.50
395.27	787.50
395.40	907.00
395.54	905.00
395.67	818.00
395.80	805.50
395.93	855.00
396.07	795.50
396.20	798.00
396.33	744.00
396.46	790.50
396.59	809.00
396.73	810.00
396.86	780.50
396.99	867.00
397.12	828.00
397.26	816.00
397.39	817.50
397.52	1097.50
397.65	923.00
397.79	813.00
397.92	805.50
398.05	864.00
398.18	793.50
398.32	798.00
398.45	835.50
398.58	837.00
398.71	837.50
398.84	766.00
398.98	801.00
399.11	849.50
399.24	840.00
399.37	800.50
399.51	776.50
399.64	819.50
399.77	818.00
399.90	809.00
400.03	807.50
400.17	768.00
400.30	867.50
400.43	834.00
400.56	815.00
400.70	813.00
400.83	780.50
400.96	790.50
401.09	819.00
401.23	826.00
401.36	888.00
401.49	797.50
401.62	818.00
401.75	798.50
401.89	783.00
402.02	800.00
402.15	815.00
402.28	835.50
402.41	827.50
402.55	801.50
402.68	807.00
402.81	882.00
402.94	860.50
403.08	791.00
403.21	775.00
403.34	852.00
403.47	861.00
403.60	803.00
403.74	838.00
403.87	855.00
404.00	793.00
404.13	779.50
404.26	764.00
404.40	786.00
404.53	844.00
404.66	805.50
404.79	791.00
404.93	858.00
405.06	817.50
405.19	768.00
405.32	825.50
405.45	843.50
405.59	846.50
405.72	817.00
405.85	790.50
405.98	997.00
406.11	786.50
406.25	778.00
406.38	791.50
406.51	846.00
406.64	810.50
406.77	764.00
406.91	765.50
407.04	837.00
407.17	805.00
407.30	825.00
407.43	808.00
407.57	876.50
407.70	873.00
407.83	794.00
407.96	811.00
408.09	771.50
408.23	892.00
408.36	802.00
408.49	801.50
408.62	933.00
408.75	825.00
408.89	791.50
409.02	833.50
409.15	827.00
409.28	903.00
409.41	851.50
409.55	779.50
409.68	922.00
409.81	833.50
409.94	785.50
410.07	822.00
410.20	820.00
410.34	803.00
410.47	810.50
410.60	819.50
410.73	847.50
410.86	789.00
411.00	808.00
411.13	776.50
411.26	830.50
411.39	816.50
411.52	831.50
411.66	801.50
411.79	799.50
411.92	794.00
412.05	800.50
412.18	790.00
412.31	823.50
412.45	854.00
412.58	846.50
412.71	781.50
412.84	831.50
412.97	900.50
413.11	815.00
413.24	833.00
413.37	859.00
413.50	924.00
413.63	838.00
413.76	799.00
413.90	839.50
414.03	803.00
414.16	793.50
414.29	819.50
414.42	807.00
414.56	920.50
414.69	783.50
414.82	808.00
414.95	815.50
415.08	844.50
415.21	807.00
415.35	826.00
415.48	736.00
415.61	872.00
415.74	869.00
415.87	770.50
416.00	837.00
416.14	922.00
416.27	808.50
416.40	778.50
416.53	802.50
416.66	837.00
416.79	814.50
416.93	786.50
417.06	842.00
417.19	822.00
417.32	802.50
417.45	781.50
417.58	764.00
417.72	857.50
417.85	796.50
417.98	808.00
418.11	843.00
418.24	794.50
418.37	790.00
418.51	820.00
418.64	819.50
418.77	899.50
418.90	823.50
419.03	765.50
419.16	814.50
419.29	852.00
419.43	798.00
419.56	773.50
419.69	927.00
419.82	865.00
419.95	805.50
420.08	858.00
420.22	880.00
420.35	941.00
420.48	854.00
420.61	801.50
420.74	759.00
420.87	847.50
421.00	783.00
421.14	803.50
421.27	847.00
421.40	886.50
421.53	831.00
421.66	810.50
421.79	811.00
421.93	818.50
422.06	819.50
422.19	786.00
422.32	850.50
422.45	868.00
422.58	820.00
422.71	792.00
422.85	849.50
422.98	859.50
423.11	761.50
423.24	752.00
423.37	787.50
423.50	788.50
423.63	823.50
423.77	782.50
423.90	791.50
424.03	837.00
424.16	827.50
424.29	807.50
424.42	762.50
424.55	798.50
424.69	785.50
424.82	810.50
424.95	823.00
425.08	799.00
425.21	828.50
425.34	804.50
425.47	815.00
425.60	818.00
425.74	764.50
425.87	805.00
426.00	811.00
426.13	824.50
426.26	790.00
426.39	799.50
426.52	802.00
426.66	867.50
426.79	837.00
426.92	773.00
427.05	917.00
427.18	881.50
427.31	807.50
427.44	792.00
427.57	795.00
427.71	819.50
427.84	771.00
427.97	810.50
428.10	878.50
428.23	828.00
428.36	801.50
428.49	726.00
428.62	940.00
428.76	912.00
428.89	823.00
429.02	761.00
429.15	809.00
429.28	919.00
429.41	800.00
429.54	798.50
429.67	797.50
429.81	850.50
429.94	812.50
430.07	785.00
430.20	855.50
430.33	879.00
430.46	781.50
430.59	789.00
430.72	816.00
430.85	761.00
430.99	797.00
431.12	785.00
431.25	859.00
431.38	891.00
431.51	801.50
431.64	816.00
431.77	903.50
431.90	885.50
432.03	813.00
432.17	794.00
432.30	822.50
432.43	843.00
432.56	820.50
432.69	829.50
432.82	835.50
432.95	869.50
433.08	821.50
433.21	812.00
433.35	807.00
433.48	808.00
433.61	767.50
433.74	795.00
433.87	785.00
434.00	843.00
434.13	792.00
434.26	840.00
434.39	829.50
434.53	846.50
434.66	799.50
434.79	795.00
434.92	794.50
435.05	870.50
435.18	791.50
435.31	830.50
435.44	874.50
435.57	815.50
435.70	818.00
435.84	785.50
435.97	886.00
436.10	942.50
436.23	801.00
436.36	779.00
436.49	788.50
436.62	830.00
436.75	807.50
436.88	843.00
437.01	798.50
437.14	783.50
437.28	754.00
437.41	793.00
437.54	873.50
437.67	859.50
437.80	784.50
437.93	763.50
438.06	934.50
438.19	853.50
438.32	768.00
438.45	775.00
438.58	842.50
438.72	886.50
438.85	857.50
438.98	806.00
439.11	829.50
439.24	889.50
439.37	870.00
439.50	843.00
439.63	877.50
439.76	799.50
439.89	788.00
440.02	804.00
440.15	847.00
440.29	879.00
440.42	816.00
440.55	812.00
440.68	888.00
440.81	945.00
440.94	826.00
441.07	813.50
441.20	906.50
441.33	832.00
441.46	812.00
441.59	798.00
441.72	811.50
441.85	820.50
441.99	855.00
442.12	852.50
442.25	896.50
442.38	841.00
442.51	835.00
442.64	761.50
442.77	802.00
442.90	811.50
443.03	778.50
443.16	794.50
443.29	820.50
443.42	881.50
443.55	795.50
443.68	817.00
443.82	767.00
443.95	797.50
444.08	790.50
444.21	807.50
444.34	796.00
444.47	807.00
444.60	812.00
444.73	821.50
444.86	821.00
444.99	877.50
445.12	830.00
445.25	831.50
445.38	824.00
445.51	842.50
445.64	821.50
445.78	798.00
445.91	762.50
446.04	939.00
446.17	869.50
446.30	765.00
446.43	827.50
446.56	814.00
446.69	781.00
446.82	787.00
446.95	876.00
447.08	861.50
447.21	818.50
447.34	796.50
447.47	855.50
447.60	850.50
447.73	814.50
447.86	842.50
447.99	831.00
448.13	834.50
448.26	855.00
448.39	817.50
448.52	858.00
448.65	859.50
448.78	831.00
448.91	814.50
449.04	853.00
449.17	803.00
449.30	840.00
449.43	828.50
449.56	824.00
449.69	889.50
449.82	819.50
449.95	765.50
450.08	861.00
450.21	853.00
450.34	815.50
450.47	797.50
450.60	848.50
450.73	819.50
450.87	808.50
451.00	828.50
451.13	860.50
451.26	971.50
451.39	813.50
451.52	842.00
451.65	818.50
451.78	804.00
451.91	792.50
452.04	801.50
452.17	903.50
452.30	897.00
452.43	801.00
452.56	795.50
452.69	863.00
452.82	778.50
452.95	841.50
453.08	790.50
453.21	747.00
453.34	867.50
453.47	794.50
453.60	854.50
453.73	903.00
453.86	847.50
453.99	830.00
454.12	839.50
454.25	803.00
454.38	838.00
454.52	767.00
454.65	792.50
454.78	787.50
454.91	761.00
455.04	793.50
455.17	781.00
455.30	771.50
455.43	872.50
455.56	792.50
455.69	763.00
455.82	842.00
455.95	834.00
456.08	768.50
456.21	769.50
456.34	767.50
456.47	753.00
456.60	800.50
456.73	771.50
456.86	804.50
456.99	830.50
457.12	780.50
457.25	804.00
457.38	874.50
457.51	840.00
457.64	819.50
457.77	801.50
457.90	813.00
458.03	809.50
458.16	806.50
458.29	802.50
458.42	795.00
458.55	753.00
458.68	783.50
458.81	799.50
458.94	874.00
459.07	917.50
459.20	775.00
459.33	791.50
459.46	872.00
459.59	921.50
459.72	883.00
459.85	808.00
459.98	890.00
460.11	846.00
460.24	821.00
460.37	758.00
460.50	851.00
460.63	834.50
460.76	808.50
460.89	809.00
461.02	842.50
461.15	853.50
461.28	803.50
461.41	800.50
461.54	884.00
461.67	786.00
461.80	823.50
461.93	853.00
462.06	832.00
462.19	855.50
462.32	793.50
462.45	788.00
462.58	840.00
462.71	802.50
462.84	806.00
462.97	758.00
463.10	815.00
463.23	823.50
463.36	840.00
463.49	818.00
463.62	760.00
463.75	844.00
463.88	802.00
464.01	807.00
464.14	783.00
464.27	919.50
464.40	812.50
464.53	805.00
464.66	845.50
464.79	833.50
464.92	820.50
465.05	771.50
465.18	815.50
465.31	810.50
465.44	806.00
465.57	789.50
465.70	806.50
465.83	928.50
465.96	824.00
466.09	796.50
466.22	862.50
466.35	829.00
466.48	793.00
466.61	796.00
466.74	808.50
466.87	863.50
467.00	855.50
467.13	839.50
467.26	851.50
467.39	765.50
467.52	764.50
467.65	814.00
467.78	885.50
467.91	833.50
468.04	814.50
468.17	791.00
468.30	802.00
468.43	778.50
468.56	792.50
468.69	833.50
468.82	838.50
468.95	784.50
469.08	798.00
469.21	805.50
469.34	844.00
469.47	930.50
469.60	887.00
469.73	829.00
469.86	852.00
469.99	874.00
470.11	791.00
470.24	799.50
470.37	851.00
470.50	830.00
470.63	787.00
470.76	800.50
470.89	858.50
471.02	926.50
471.15	795.50
471.28	792.00
471.41	907.50
471.54	858.00
471.67	802.50
471.80	746.50
471.93	854.50
472.06	842.50
472.19	801.50
472.32	781.00
472.45	922.50
472.58	871.50
472.71	824.50
472.84	799.50
472.97	790.50
473.10	782.00
473.23	855.50
473.36	768.00
473.49	871.50
473.62	848.00
473.74	833.00
473.87	860.50
474.00	792.50
474.13	784.50
474.26	822.00
474.39	836.50
474.52	817.50
474.65	800.00
474.78	800.50
474.91	768.00
475.04	835.00
475.17	936.00
475.30	843.50
475.43	825.00
475.56	855.50
475.69	805.00
475.82	840.50
475.95	787.00
476.08	874.50
476.21	837.00
476.34	857.50
476.46	848.50
476.59	897.50
476.72	801.50
476.85	797.00
476.98	777.00
477.11	859.50
477.24	815.00
477.37	756.50
477.50	804.00
477.63	820.50
477.76	783.00
477.89	757.50
478.02	773.00
478.15	810.50
478.28	804.50
478.41	831.50
478.54	795.50
478.66	847.00
478.79	813.00
478.92	799.00
479.05	812.00
479.18	813.50
479.31	779.50
479.44	795.00
479.57	789.50
479.70	822.00
479.83	837.00
479.96	795.00
480.09	828.50
480.22	950.50
480.35	941.00
480.48	866.50
480.60	821.00
480.73	792.00
480.86	842.50
480.99	793.50
481.12	807.50
481.25	821.50
481.38	871.50
481.51	798.50
481.64	818.50
481.77	840.50
481.90	804.50
482.03	809.50
482.16	795.50
482.29	872.00
482.41	817.50
482.54	830.50
482.67	797.50
482.80	807.00
482.93	865.50
483.06	769.50
483.19	879.00
483.32	847.50
483.45	822.00
483.58	830.00
483.71	837.50
483.84	855.50
483.97	834.50
484.09	817.00
484.22	800.00
484.35	797.50
484.48	763.00
484.61	796.00
484.74	792.50
484.87	830.00
485.00	774.50
485.13	838.50
485.26	779.50
485.39	835.50
485.52	810.50
485.64	878.50
485.77	842.50
485.90	867.00
486.03	781.00
486.16	832.50
486.29	780.00
486.42	808.50
486.55	822.50
486.68	801.00
486.81	842.50
486.94	829.50
487.06	817.00
487.19	862.00
487.32	848.50
487.45	822.00
487.58	800.50
487.71	824.00
487.84	778.50
487.97	849.00
488.10	865.50
488.23	800.00
488.35	757.00
488.48	804.00
488.61	775.50
488.74	796.50
488.87	789.00
489.00	818.50
489.13	913.00
489.26	836.50
489.39	850.50
489.52	848.00
489.64	847.50
489.77	832.50
489.90	823.00
490.03	801.50
490.16	789.50
490.29	796.00
490.42	792.00
490.55	816.50
490.68	789.00
490.81	797.50
490.93	761.00
491.06	873.00
491.19	845.50
491.32	831.00
491.45	845.50
491.58	772.50
491.71	812.00
491.84	794.50
491.97	810.00
492.09	888.00
492.22	841.00
492.35	820.50
492.48	852.50
492.61	825.50
492.74	813.50
492.87	833.50
493.00	815.50
493.12	799.00
493.25	817.00
493.38	804.50
493.51	783.00
493.64	779.50
493.77	825.50
493.90	841.50
494.03	846.00
494.16	871.00
494.28	882.50
494.41	814.00
494.54	813.50
494.67	937.00
494.80	897.50
494.93	812.00
495.06	837.00
495.19	842.50
495.31	825.00
495.44	811.00
495.57	792.50
495.70	835.50
495.83	819.50
495.96	795.00
496.09	827.00
496.22	886.50
496.34	901.50
496.47	810.00
496.60	842.00
496.73	863.50
496.86	849.50
496.99	794.00
497.12	820.00
497.24	762.50
497.37	827.00
497.50	809.00
497.63	797.50
497.76	823.50
497.89	883.50
498.02	838.50
498.15	743.00
498.27	819.00
498.40	867.00
498.53	878.50
498.66	832.00
498.79	868.50
498.92	783.00
499.05	834.50
499.17	818.00
499.30	854.00
499.43	905.00
499.56	843.00
499.69	768.00
499.82	827.50
499.95	794.50
500.07	785.00
500.20	825.50
500.33	853.50
500.46	962.00
500.59	824.00
500.72	828.00
500.85	878.00
500.97	860.00
501.10	874.00
501.23	786.50
501.36	833.00
501.49	885.50
501.62	844.50
501.75	827.50
501.87	868.00
502.00	762.50
502.13	835.00
502.26	836.00
502.39	801.50
502.52	808.50
502.64	767.50
502.77	793.50
502.90	849.00
503.03	818.00
503.16	785.50
503.29	798.00
503.42	860.00
503.54	827.00
503.67	821.00
503.80	818.50
503.93	863.00
504.06	783.50
504.19	819.00
504.31	874.50
504.44	832.00
504.57	844.00
504.70	837.00
504.83	777.00
504.96	836.50
505.08	828.00
505.21	823.00
505.34	911.00
505.47	883.00
505.60	865.00
505.73	869.50
505.85	860.50
505.98	952.50
506.11	825.00
506.24	789.50
506.37	793.00
506.50	832.50
506.62	862.00
506.75	807.50
506.88	784.50
507.01	843.50
507.14	778.50
507.27	811.50
507.39	787.00
507.52	803.00
507.65	811.50
507.78	842.50
507.91	789.00
508.04	878.50
508.16	870.50
508.29	839.50
508.42	805.50
508.55	786.00
508.68	786.00
508.81	856.50
508.93	801.00
509.06	798.50
509.19	847.00
509.32	842.00
509.45	825.50
509.57	837.00
509.70	783.00
509.83	807.50
509.96	768.00
510.09	816.50
510.22	816.50
510.34	813.00
510.47	814.00
510.60	923.00
510.73	833.00
510.86	837.00
510.98	813.50
511.11	814.50
511.24	865.00
511.37	840.00
511.50	808.50
511.63	828.50
511.75	829.50
511.88	809.00
512.01	838.50
512.14	826.00
512.27	840.50
512.39	817.50
512.52	806.00
512.65	834.50
512.78	799.00
512.91	813.50
513.03	824.50
513.16	850.50
513.29	822.50
513.42	808.00
513.55	789.00
513.67	842.00
513.80	777.00
513.93	802.00
514.06	796.50
514.19	835.00
514.31	838.50
514.44	857.00
514.57	820.00
514.70	829.50
514.83	868.50
514.95	800.00
515.08	829.50
515.21	842.00
515.34	843.00
515.47	830.00
515.59	798.50
515.72	840.00
515.85	850.50
515.98	880.00
516.11	836.00
516.23	847.50
516.36	885.50
516.49	848.00
516.62	834.00
516.75	881.50
516.87	880.00
517.00	797.00
517.13	848.50
517.26	877.00
517.39	845.00
517.51	755.00
517.64	824.50
517.77	888.50
517.90	785.50
518.02	821.50
518.15	785.00
518.28	751.50
518.41	807.50
518.54	824.50
518.66	825.50
518.79	785.50
518.92	790.50
519.05	797.00
519.18	809.50
519.30	839.00
519.43	755.50
519.56	789.50
519.69	802.50
519.81	866.00
519.94	802.50
520.07	750.50
520.20	794.50
520.33	830.50
520.45	872.00
520.58	833.50
520.71	843.00
520.84	871.50
520.96	838.00
521.09	821.50
521.22	806.50
521.35	865.00
521.48	839.00
521.60	804.50
521.73	834.00
521.86	880.50
521.99	904.00
522.11	829.00
522.24	812.50
522.37	845.00
522.50	832.00
522.62	871.00
522.75	759.50
522.88	831.50
523.01	803.50
523.14	842.50
523.26	830.00
523.39	882.50
523.52	810.50
523.65	910.00
523.77	833.50
523.90	816.50
524.03	817.00
524.16	814.00
524.28	801.50
524.41	808.50
524.54	815.00
524.67	776.50
524.79	809.50
524.92	846.00
525.05	887.00
525.18	772.00
525.31	856.00
525.43	783.50
525.56	928.50
525.69	800.00
525.82	757.50
525.94	853.00
526.07	869.50
526.20	840.00
526.33	846.00
526.45	942.00
526.58	906.50
526.71	838.00
526.84	815.50
526.96	823.00
527.09	789.50
527.22	811.50
527.35	822.00
527.47	771.00
527.60	899.50
527.73	797.50
527.86	847.00
527.98	844.00
528.11	856.50
528.24	794.00
528.37	815.00
528.49	783.00
528.62	820.00
528.75	851.50
528.88	799.50
529.00	839.00
529.13	871.00
529.26	831.00
529.39	863.00
529.51	951.50
529.64	927.00
529.77	791.50
529.90	812.50
530.02	804.50
530.15	796.00
530.28	750.00
530.40	776.50
530.53	810.50
530.66	826.00
530.79	796.00
530.91	813.00
531.04	803.00
531.17	822.00
531.30	818.50
531.42	812.00
531.55	830.00
531.68	883.50
531.81	801.00
531.93	824.50
532.06	823.00
532.19	785.50
532.31	818.50
532.44	813.50
532.57	843.50
532.70	799.50
532.82	826.50
532.95	853.50
533.08	891.00
533.21	859.50
533.33	791.00
533.46	799.50
533.59	808.50
533.71	933.00
533.84	828.00
533.97	804.50
534.10	805.00
534.22	790.00
534.35	820.00
534.48	821.50
534.61	834.50
534.73	752.00
534.86	784.50
534.99	836.50
535.11	879.00
535.24	836.50
535.37	805.00
535.50	782.50
535.62	787.50
535.75	870.50
535.88	828.50
536.00	799.50
536.13	802.00
536.26	801.00
536.39	791.50
536.51	774.00
536.64	841.50
536.77	808.50
536.89	821.50
537.02	829.00
537.15	842.00
537.28	826.00
537.40	828.00
537.53	801.50
537.66	869.00
537.78	834.00
537.91	796.00
538.04	792.50
538.17	853.50
538.29	840.50
538.42	898.00
538.55	871.50
538.67	846.00
538.80	800.50
538.93	838.00
539.05	828.00
539.18	877.50
539.31	857.00
539.44	832.50
539.56	750.50
539.69	801.00
539.82	795.00
539.94	816.00
540.07	794.50
540.20	879.00
540.32	792.50
540.45	806.00
540.58	803.50
540.71	866.00
540.83	783.50
540.96	808.00
541.09	817.00
541.21	894.00
541.34	865.50
541.47	794.50
541.59	811.50
541.72	886.50
541.85	953.50
541.98	875.50
542.10	819.50
542.23	843.50
542.36	945.00
542.48	834.00
542.61	817.00
542.74	777.50
542.86	803.50
542.99	814.50
543.12	802.00
543.24	835.50
543.37	761.00
543.50	816.50
543.62	797.00
543.75	814.50
543.88	830.50
544.01	835.00
544.13	836.50
544.26	848.00
544.39	802.50
544.51	797.50
544.64	775.00
544.77	846.00
544.89	794.00
545.02	816.00
545.15	792.50
545.27	908.50
545.40	870.00
545.53	844.00
545.65	842.50
545.78	748.00
545.91	783.00
546.03	812.00
546.16	811.50
546.29	805.50
546.41	781.50
546.54	809.00
546.67	787.00
546.79	846.00
546.92	892.00
547.05	774.50
547.17	819.00
547.30	790.00
547.43	852.50
547.56	786.00
547.68	805.50
547.81	776.00
547.94	844.00
548.06	804.00
548.19	770.00
548.32	875.50
548.44	829.00
548.57	835.50
548.70	862.00
548.82	861.00
548.95	842.00
549.08	815.00
549.20	815.50
549.33	911.50
549.45	830.00
549.58	802.00
549.71	777.00
549.83	862.50
549.96	781.00
550.09	818.50
550.21	794.50
550.34	821.00
550.47	810.50
550.59	808.00
550.72	747.00
550.85	821.50
550.97	880.00
551.10	798.50
551.23	819.50
551.35	886.50
551.48	833.50
551.61	803.50
551.73	797.00
551.86	876.50
551.99	883.00
552.11	833.00
552.24	852.00
552.37	826.50
552.49	775.00
552.62	794.50
552.75	846.00
552.87	800.00
553.00	803.50
553.12	826.50
553.25	804.50
553.38	833.00
553.50	870.00
553.63	804.50
553.76	761.50
553.88	824.00
554.01	807.00
554.14	797.00
554.26	825.50
554.39	887.00
554.52	817.50
554.64	811.50
554.77	795.00
554.89	852.50
555.02	875.50
555.15	842.00
555.27	812.50
555.40	821.50
555.53	877.50
555.65	815.00
555.78	784.50
555.91	846.00
556.03	885.50
556.16	782.00
556.29	820.50
556.41	879.50
556.54	875.50
556.66	814.50
556.79	788.50
556.92	819.50
557.04	829.50
557.17	800.50
557.30	800.00
557.42	806.50
557.55	813.00
557.67	827.50
557.80	810.00
557.93	823.00
558.05	829.00
558.18	782.50
558.31	820.50
558.43	853.50
558.56	829.50
558.68	807.00
558.81	777.00
558.94	801.00
559.06	924.50
559.19	804.00
559.32	787.00
559.44	772.50
559.57	815.50
559.69	787.00
559.82	784.50
559.95	786.00
560.07	794.50
560.20	742.00
560.33	805.50
560.45	817.50
560.58	755.00
560.70	805.00
560.83	772.50
560.96	806.00
561.08	814.50
561.21	828.50
561.33	774.00
561.46	762.50
561.59	861.00
561.71	792.00
561.84	826.00
561.97	776.50
562.09	829.00
562.22	788.50
562.34	772.50
562.47	844.00
562.60	822.00
562.72	812.00
562.85	811.00
562.97	808.50
563.10	806.00
563.23	787.50
563.35	786.50
563.48	818.50
563.60	793.50
563.73	833.00
563.86	769.00
563.98	787.50
564.11	808.00
564.23	796.00
564.36	871.50
564.49	814.00
564.61	873.50
564.74	811.50
564.86	790.00
564.99	857.50
565.12	833.00
565.24	864.00
565.37	855.00
565.49	860.50
565.62	882.00
565.75	849.00
565.87	789.50
566.00	935.00
566.12	863.50
566.25	821.00
566.38	840.50
566.50	823.50
566.63	847.00
566.75	796.00
566.88	785.00
567.01	778.00
567.13	798.50
567.26	799.00
567.38	772.00
567.51	842.50
567.64	786.50
567.76	833.50
567.89	823.50
568.01	787.00
568.14	772.50
568.26	815.50
568.39	808.00
568.52	800.00
568.64	830.00
568.77	795.00
568.89	789.50
569.02	797.50
569.15	816.50
569.27	800.50
569.40	829.50
569.52	847.50
569.65	792.50
569.77	792.50
569.90	750.50
570.03	756.00
570.15	879.50
570.28	823.00
570.40	811.50
570.53	811.50
570.66	871.50
570.78	858.50
570.91	822.50
571.03	770.50
571.16	809.50
571.28	775.00
571.41	761.50
571.54	760.50
571.66	753.50
571.79	774.00
571.91	778.00
572.04	765.50
572.16	812.00
572.29	834.50
572.42	785.00
572.54	829.50
572.67	795.00
572.79	825.50
572.92	807.00
573.04	829.00
573.17	857.50
573.29	817.00
573.42	794.00
573.55	845.50
573.67	832.00
573.80	812.50
573.92	774.50
574.05	816.00
574.17	863.00
574.30	801.50
574.43	778.00
574.55	792.50
574.68	816.00
574.80	798.50
574.93	789.00
575.05	748.00
575.18	796.50
575.30	790.50
575.43	832.50
575.56	862.00
575.68	825.00
575.81	785.50
575.93	768.00
576.06	833.50
576.18	843.00
576.31	803.00
576.43	780.00
576.56	889.00
576.69	868.50
576.81	818.50
576.94	784.00
577.06	812.00
577.19	844.50
577.31	817.00
577.44	827.50
577.56	861.50
577.69	816.50
577.82	807.00
577.94	785.50
578.07	754.50
578.19	833.00
578.32	842.50
578.44	778.00
578.57	784.00
578.69	852.50
578.82	818.00
578.94	849.50
579.07	857.00
579.19	845.00
579.32	820.00
579.45	827.50
579.57	817.00
579.70	783.00
579.82	819.50
579.95	796.00
580.07	871.50
580.20	796.50
580.32	800.00
580.45	835.50
580.57	835.00
580.70	811.50
580.82	831.50
580.95	832.50
581.08	766.00
581.20	852.50
581.33	802.00
581.45	828.00
581.58	804.50
581.70	827.50
581.83	743.50
581.95	820.50
582.08	843.50
582.20	800.50
582.33	809.50
582.45	785.50
582.58	783.00
582.70	826.00
582.83	783.00
582.95	813.50
583.08	851.00
583.21	870.00
583.33	823.00
583.46	790.00
583.58	773.50
583.71	837.00
583.83	826.50
583.96	821.50
584.08	843.50
584.21	855.50
584.33	846.50
584.46	798.50
584.58	769.50
584.71	842.00
584.83	837.00
584.96	813.00
585.08	796.00
585.21	905.00
585.33	872.50
585.46	849.00
585.58	852.00
585.71	798.50
585.83	821.00
585.96	862.00
586.08	826.50
586.21	838.50
586.33	848.50
586.46	751.50
586.59	843.00
586.71	779.50
586.84	828.50
586.96	820.00
587.09	759.00
587.21	796.50
587.34	845.00
587.46	783.00
587.59	767.00
587.71	812.50
587.84	795.50
587.96	751.50
588.09	760.50
588.21	836.50
588.34	796.50
588.46	825.50
588.59	785.50
588.71	821.50
588.84	823.50
588.96	812.50
589.09	908.50
589.21	812.50
589.34	788.00
589.46	814.00
589.59	830.50
589.71	855.00
589.84	780.50
589.96	784.50
590.09	800.50
590.21	850.50
590.34	827.00
590.46	819.50
590.59	800.50
590.71	798.00
590.84	851.00
590.96	768.50
591.09	827.50
591.21	817.00
591.34	795.00
591.46	799.50
591.59	878.50
591.71	851.50
591.83	809.50
591.96	764.00
592.08	795.50
592.21	835.00
592.33	821.50
592.46	790.00
592.58	827.50
592.71	855.00
592.83	888.50
592.96	842.00
593.08	870.00
593.21	782.50
593.33	765.00
593.46	800.50
593.58	802.50
593.71	840.00
593.83	856.50
593.96	779.00
594.08	921.00
594.21	803.50
594.33	790.50
594.46	783.00
594.58	762.50
594.71	733.50
594.83	825.50
594.96	802.00
595.08	953.00
595.20	853.50
595.33	827.50
595.45	789.50
595.58	898.50
595.70	843.00
595.83	800.50
595.95	825.50
596.08	834.50
596.20	769.00
596.33	758.50
596.45	806.00
596.58	770.00
596.70	764.50
596.83	800.50
596.95	791.00
597.08	813.50
597.20	779.00
597.32	791.00
597.45	809.00
597.57	809.00
597.70	835.50
597.82	811.00
597.95	813.00
598.07	817.50
598.20	821.00
598.32	812.00
598.45	797.00
598.57	862.00
598.70	866.50
598.82	801.00
598.94	796.50
599.07	850.00
599.19	813.00
599.32	784.00
599.44	727.50
599.57	853.00
599.69	823.00
599.82	802.00
599.94	781.00
600.07	858.50
600.19	833.50
600.31	785.50
600.44	844.50
600.56	921.00
600.69	896.00
600.81	790.50
600.94	799.00
601.06	817.50
601.19	826.00
601.31	856.00
601.44	764.50
601.56	875.50
601.68	840.50
601.81	834.00
601.93	811.00
602.06	834.50
602.18	784.00
602.31	805.50
602.43	866.00
602.56	843.50
602.68	814.50
602.80	822.50
602.93	816.50
603.05	777.00
603.18	810.00
603.30	778.50
603.43	781.00
603.55	813.00
603.68	841.00
603.80	825.50
603.92	812.50
604.05	801.50
604.17	789.50
604.30	782.50
604.42	794.50
604.55	803.00
604.67	838.00
604.79	782.00
604.92	806.00
605.04	792.00
605.17	795.00
605.29	799.00
605.42	788.50
605.54	872.00
605.66	835.50
605.79	839.50
605.91	796.50
606.04	816.00
606.16	800.00
606.29	824.50
606.41	778.00
606.53	802.50
606.66	756.50
606.78	807.50
606.91	796.00
607.03	800.00
607.16	796.50
607.28	775.00
607.40	828.50
607.53	834.50
607.65	773.00
607.78	780.50
607.90	807.00
608.03	909.00
608.15	826.50
608.27	830.50
608.40	764.50
608.52	820.50
608.65	817.00
608.77	844.00
608.89	811.00
609.02	881.50
609.14	884.00
609.27	834.00
609.39	842.50
609.52	784.50
609.64	754.00
609.76	790.00
609.89	804.00
610.01	873.00
610.14	840.00
610.26	804.00
610.38	774.50
610.51	852.00
610.63	796.00
610.76	768.00
610.88	826.50
611.01	871.50
611.13	897.00
611.25	845.00
611.38	771.50
611.50	812.00
611.63	832.50
611.75	825.00
611.87	839.50
612.00	794.50
612.12	853.00
612.25	798.00
612.37	792.00
612.49	885.50
612.62	851.50
612.74	874.00
612.87	812.50
612.99	815.50
613.11	749.50
613.24	799.00
613.36	803.00
613.49	818.00
613.61	815.50
613.73	797.00
613.86	854.50
613.98	789.00
614.11	849.50
614.23	839.00
614.35	860.00
614.48	864.50
614.60	822.00
614.72	808.50
614.85	830.00
614.97	814.50
615.10	827.50
615.22	809.50
615.34	828.00
615.47	871.50
615.59	791.00
615.72	810.00
615.84	819.50
615.96	799.50
616.09	892.50
616.21	812.50
616.34	790.50
616.46	807.00
616.58	844.00
616.71	838.50
616.83	845.50
616.95	853.00
617.08	835.50
617.20	814.50
617.33	767.00
617.45	804.50
617.57	837.00
617.70	816.00
617.82	794.50
617.95	810.50
618.07	886.00
618.19	831.50
618.32	817.00
618.44	793.00
618.56	777.50
618.69	747.00
618.81	763.00
618.94	838.50
619.06	806.00
619.18	808.00
619.31	768.00
619.43	757.50
619.55	813.50
619.68	823.00
619.80	771.50
619.92	835.50
620.05	939.00
620.17	863.50
620.30	818.50
620.42	845.00
620.54	849.00
620.67	788.00
620.79	814.00
620.91	842.50
621.04	873.00
621.16	801.50
621.29	784.50
621.41	767.50
621.53	799.50
621.66	802.50
621.78	795.50
621.90	849.50
622.03	902.00
622.15	816.00
622.27	805.00
622.40	827.00
622.52	803.00
622.64	792.00
622.77	763.50
622.89	825.50
623.02	842.00
623.14	819.00
623.26	840.50
623.39	822.00
623.51	856.00
623.63	795.50
623.76	770.00
623.88	869.50
624.00	814.50
624.13	778.00
624.25	786.00
624.37	774.50
624.50	853.00
624.62	832.00
624.75	772.00
624.87	755.00
624.99	836.00
625.12	787.00
625.24	801.00
625.36	880.00
625.49	849.00
625.61	835.00
625.73	818.50
625.86	863.00
625.98	823.00
626.10	784.00
626.23	763.00
626.35	819.50
626.47	799.00
626.60	779.00
626.72	791.50
626.84	793.00
626.97	832.00
627.09	804.50
627.21	799.00
627.34	929.50
627.46	893.50
627.58	808.00
627.71	819.50
627.83	856.00
627.95	776.50
628.08	810.50
628.20	847.50
628.32	757.50
628.45	736.50
628.57	753.50
628.69	782.50
628.82	820.00
628.94	872.00
629.06	814.50
629.19	792.00
629.31	839.50
629.43	774.50
629.56	822.00
629.68	816.50
629.80	855.00
629.93	771.50
630.05	774.00
630.17	772.50
630.30	787.00
630.42	773.50
630.54	823.50
630.67	810.00
630.79	786.00
630.91	933.50
631.04	821.50
631.16	813.50
631.28	815.50
631.41	784.50
631.53	768.00
631.65	812.00
631.78	835.50
631.90	815.00
632.02	807.00
632.14	738.50
632.27	866.00
632.39	803.50
632.51	794.50
632.64	849.00
632.76	799.00
632.88	785.00
633.01	825.50
633.13	789.50
633.25	808.00
633.38	907.00
633.50	759.00
633.62	752.50
633.75	757.50
633.87	746.50
633.99	819.50
634.11	771.00
634.24	799.00
634.36	795.50
634.48	796.00
634.61	788.50
634.73	832.50
634.85	784.50
634.98	777.50
635.10	791.50
635.22	803.00
635.35	930.00
635.47	819.00
635.59	799.50
635.71	840.00
635.84	863.50
635.96	791.00
636.08	841.00
636.21	789.50
636.33	823.00
636.45	800.50
636.58	783.50
636.70	743.50
636.82	826.00
636.94	775.00
637.07	755.00
637.19	837.00
637.31	829.50
637.44	830.00
637.56	752.00
637.68	819.50
637.81	822.00
637.93	805.50
638.05	765.50
638.17	852.50
638.30	914.50
638.42	803.50
638.54	771.50
638.67	797.00
638.79	808.50
638.91	776.50
639.03	802.00
639.16	787.00
639.28	813.00
639.40	808.00
639.53	789.50
639.65	840.00
639.77	803.00
639.89	805.50
640.02	803.50
640.14	805.00
640.26	766.50
640.39	824.50
640.51	781.50
640.63	822.50
640.75	857.50
640.88	794.00
641.00	774.50
641.12	770.00
641.24	884.00
641.37	803.00
641.49	771.00
641.61	899.00
641.74	778.00
641.86	807.00
641.98	763.00
642.10	820.00
642.23	831.00
642.35	788.50
642.47	806.50
642.60	810.50
642.72	840.00
642.84	742.00
642.96	759.50
643.09	763.50
643.21	766.50
643.33	772.00
643.45	772.00
643.58	849.00
643.70	870.00
643.82	790.50
643.94	789.50
644.07	821.50
644.19	822.00
644.31	808.50
644.44	811.00
644.56	794.50
644.68	756.50
644.80	766.00
644.93	764.50
645.05	781.00
645.17	820.50
645.29	810.00
645.42	812.50
645.54	802.50
645.66	831.00
645.78	807.50
645.91	790.50
646.03	836.50
646.15	876.50
646.27	786.50
646.40	804.00
646.52	835.00
646.64	843.50
646.76	788.50
646.89	744.50
647.01	847.50
647.13	822.00
647.25	836.50
647.38	796.50
647.50	768.50
647.62	841.50
647.74	757.00
647.87	763.50
647.99	805.00
648.11	832.50
648.23	797.00
648.36	756.50
648.48	857.50
648.60	805.00
648.72	771.50
648.85	764.00
648.97	852.50
649.09	821.50
649.21	787.50
649.34	820.50
649.46	813.50
649.58	819.50
649.70	813.50
649.83	789.00
649.95	819.00
650.07	822.00
650.19	836.00
650.32	802.00
650.44	856.50
650.56	824.50
650.68	788.50
650.81	784.50
650.93	780.00
651.05	858.50
651.17	774.50
651.29	813.50
651.42	792.00
651.54	836.50
651.66	762.00
651.78	771.50
651.91	823.50
652.03	918.00
652.15	822.00
652.27	770.50
652.40	817.50
652.52	802.50
652.64	816.50
652.76	785.50
652.88	886.00
653.01	827.50
653.13	774.00
653.25	738.00
653.37	831.00
653.50	832.50
653.62	827.00
653.74	747.50
653.86	822.50
653.98	828.50
654.11	777.50
654.23	793.50
654.35	789.50
654.47	913.50
654.60	793.00
654.72	787.00
654.84	767.00
654.96	843.50
655.08	787.50
655.21	816.00
655.33	796.00
655.45	846.00
655.57	804.00
655.70	803.00
655.82	851.00
655.94	883.50
656.06	823.50
656.18	756.00
656.31	858.50
656.43	846.00
656.55	785.00
656.67	803.00
656.79	808.50
656.92	860.50
657.04	820.50
657.16	789.00
657.28	922.50
657.40	808.00
657.53	837.50
657.65	801.00
657.77	857.00
657.89	851.00
658.01	793.00
658.14	772.00
658.26	825.00
658.38	786.50
658.50	776.00
658.62	761.00
658.75	918.00
658.87	847.00
658.99	831.00
659.11	776.00
659.23	848.50
659.36	895.50
659.48	851.00
659.60	825.50
659.72	810.00
659.84	808.00
659.97	832.00
660.09	839.00
660.21	906.50
660.33	839.50
660.45	755.00
660.58	718.50
660.70	771.00
660.82	788.00
660.94	752.50
661.06	797.50
661.19	861.00
661.31	846.00
661.43	806.50
661.55	803.00
661.67	838.00
661.80	873.00
661.92	810.00
662.04	816.00
662.16	805.50
662.28	860.50
662.40	808.00
662.53	818.00
662.65	824.50
662.77	779.00
662.89	818.50
663.01	779.50
663.14	802.50
663.26	836.50
663.38	796.50
663.50	766.00
663.62	782.50
663.74	813.00
663.87	778.50
663.99	809.50
664.11	845.50
664.23	913.50
664.35	798.50
664.48	776.50
664.60	799.50
664.72	794.50
664.84	755.00
664.96	794.00
665.08	846.00
665.21	818.50
665.33	833.00
665.45	749.00
665.57	795.00
665.69	881.50
665.81	807.50
665.94	766.00
666.06	772.50
666.18	823.50
666.30	783.00
666.42	777.00
666.54	808.00
666.67	818.50
666.79	776.00
666.91	848.50
667.03	791.00
667.15	760.50
667.27	797.00
667.40	761.50
667.52	781.00
667.64	845.50
667.76	789.00
667.88	759.50
668.00	840.50
668.13	839.00
668.25	774.00
668.37	766.00
668.49	790.50
668.61	848.50
668.73	800.00
668.85	809.00
668.98	829.00
669.10	812.50
669.22	785.50
669.34	792.00
669.46	838.50
669.58	799.50
669.71	813.00
669.83	796.50
669.95	792.00
670.07	806.00
670.19	789.00
670.31	796.00
670.43	791.00
670.56	815.50
670.68	855.00
670.80	818.50
670.92	809.50
671.04	874.00
671.16	788.50
671.28	784.00
671.41	787.50
671.53	830.00
671.65	786.50
671.77	782.50
671.89	949.00
672.01	882.00
672.13	840.50
672.26	767.50
672.38	817.50
672.50	767.50
672.62	798.00
672.74	823.00
672.86	805.50
672.98	820.50
673.11	803.00
673.23	815.00
673.35	866.50
673.47	808.50
673.59	809.50
673.71	766.00
673.83	828.00
673.96	904.00
674.08	811.00
674.20	766.50
674.32	791.00
674.44	808.50
674.56	824.00
674.68	818.50
674.80	838.00
674.93	810.00
675.05	793.00
675.17	817.50
675.29	845.00
675.41	856.00
675.53	804.50
675.65	796.50
675.77	794.00
675.90	859.00
676.02	787.50
676.14	778.50
676.26	877.50
676.38	895.00
676.50	823.50
676.62	837.00
676.74	772.50
676.87	780.00
676.99	819.50
677.11	858.00
677.23	820.50
677.35	830.00
677.47	750.00
677.59	766.00
677.71	817.50
677.83	834.50
677.96	817.00
678.08	805.50
678.20	808.50
678.32	772.00
678.44	796.50
678.56	804.00
678.68	946.00
678.80	850.50
678.93	797.00
679.05	819.00
679.17	804.50
679.29	853.50
679.41	808.00
679.53	780.00
679.65	775.50
679.77	813.00
679.89	798.00
680.01	833.00
680.14	836.50
680.26	758.50
680.38	789.00
680.50	835.50
680.62	890.00
680.74	830.00
680.86	787.50
680.98	813.00
681.10	833.50
681.22	908.00
681.35	789.50
681.47	795.50
681.59	781.50
681.71	876.50
681.83	803.00
681.95	776.00
682.07	863.50
682.19	820.00
682.31	802.00
682.43	773.00
682.56	848.50
682.68	771.50
682.80	776.00
682.92	829.50
683.04	815.50
683.16	804.00
683.28	772.00
683.40	837.50
683.52	816.00
683.64	820.00
683.76	781.50
683.89	789.00
684.01	805.50
684.13	860.50
684.25	807.00
684.37	815.50
684.49	851.00
684.61	807.00
684.73	817.00
684.85	797.00
684.97	770.50
685.09	866.00
685.21	777.00
685.34	802.50
685.46	932.50
685.58	826.00
685.70	822.50
685.82	843.50
685.94	781.50
686.06	781.50
686.18	773.00
686.30	799.00
686.42	774.00
686.54	840.50
686.66	768.50
686.79	877.00
686.91	839.00
687.03	932.00
687.15	839.00
687.27	796.00
687.39	814.50
687.51	893.00
687.63	811.50
687.75	856.00
687.87	840.00
687.99	888.50
688.11	776.00
688.23	824.50
688.35	864.00
688.48	835.50
688.60	781.50
688.72	793.50
688.84	817.00
688.96	841.00
689.08	804.00
689.20	801.50
689.32	918.00
689.44	817.00
689.56	771.50
689.68	794.50
689.80	809.00
689.92	781.50
690.04	790.00
690.16	838.00
690.28	826.50
690.41	820.00
690.53	780.00
690.65	850.50
690.77	872.50
690.89	863.50
691.01	800.50
691.13	789.00
691.25	773.00
691.37	796.00
691.49	747.00
691.61	759.00
691.73	889.50
691.85	806.00
691.97	788.00
692.09	775.50
692.21	840.50
692.33	868.00
692.45	826.50
692.57	783.00
692.70	814.50
692.82	832.00
692.94	746.00
693.06	790.00
693.18	826.00
693.30	791.50
693.42	793.00
693.54	825.50
693.66	843.00
693.78	833.50
693.90	792.00
694.02	815.00
694.14	827.50
694.26	791.00
694.38	821.50
694.50	827.00
694.62	824.50
694.74	777.50
694.86	769.50
694.98	809.50
695.10	820.50
695.22	844.00
695.34	788.00
695.46	777.50
695.58	784.00
695.71	813.50
695.83	787.00
695.95	781.00
696.07	859.00
696.19	781.50
696.31	778.50
696.43	783.00
696.55	888.50
696.67	828.00
696.79	785.00
696.91	803.50
697.03	785.50
697.15	885.50
697.27	813.50
697.39	782.00
697.51	843.50
697.63	778.00
697.75	778.00
697.87	802.50
697.99	765.50
698.11	739.00
698.23	763.50
698.35	780.00
698.47	784.50
698.59	817.00
698.71	794.50
698.83	852.00
698.95	776.00
699.07	817.50
699.19	790.00
699.31	803.00
699.43	774.00
699.55	838.50
699.67	787.50
699.79	793.50
699.91	781.00
700.03	816.00
700.15	807.00
700.27	774.00
700.39	805.00
700.51	763.00
700.63	801.50
700.75	795.50
700.87	822.00
700.99	782.50
701.11	819.00
701.24	807.50
701.36	848.00
701.48	848.00
701.60	836.00
701.72	784.50
701.84	878.50
701.96	830.00
702.08	801.00
702.20	888.50
702.32	842.50
702.44	836.50
702.56	799.00
702.68	801.50
702.80	807.50
702.92	893.00
703.04	871.00
703.16	820.00
703.28	819.00
703.40	801.00
703.52	830.50
703.64	820.00
703.76	814.50
703.88	785.50
704.00	774.50
704.12	802.50
704.24	859.50
704.36	822.00
704.48	815.00
704.60	766.50
704.72	792.00
704.84	790.50
704.96	829.50
705.07	809.00
705.19	774.00
705.31	793.00
705.43	839.00
705.55	789.00
705.67	830.00
705.79	819.50
705.91	746.50
706.03	801.50
706.15	808.50
706.27	795.00
706.39	785.00
706.51	773.00
706.63	784.50
706.75	825.50
706.87	816.50
706.99	858.50
707.11	801.50
707.23	799.50
707.35	824.00
707.47	801.00
707.59	846.00
707.71	860.00
707.83	802.00
707.95	832.00
708.07	795.00
708.19	933.00
708.31	815.00
708.43	771.50
708.55	830.50
708.67	873.00
708.79	822.00
708.91	839.50
709.03	824.00
709.15	861.00
709.27	782.50
709.39	827.00
709.51	802.00
709.63	825.50
709.75	833.50
709.87	773.00
709.99	850.50
710.11	793.00
710.23	777.00
710.35	767.00
710.47	918.50
710.58	866.00
710.70	855.50
710.82	860.50
710.94	812.00
711.06	800.00
711.18	812.50
711.30	783.50
711.42	861.00
711.54	812.50
711.66	841.50
711.78	777.00
711.90	846.50
712.02	876.00
712.14	787.50
712.26	754.00
712.38	857.00
712.50	858.50
712.62	795.50
712.74	787.50
712.86	790.50
712.98	850.50
713.10	782.50
713.22	771.50
713.34	815.50
713.45	778.00
713.57	813.50
713.69	785.00
713.81	797.00
713.93	825.00
714.05	805.50
714.17	751.00
714.29	865.50
714.41	850.00
714.53	793.00
714.65	828.00
714.77	815.00
714.89	777.50
715.01	854.00
715.13	773.50
715.25	813.50
715.37	774.00
715.49	768.00
715.61	826.50
715.72	828.00
715.84	863.50
715.96	796.50
716.08	805.00
716.20	873.50
716.32	849.00
716.44	797.50
716.56	808.00
716.68	822.00
716.80	896.50
716.92	857.00
717.04	818.50
717.16	841.00
717.28	801.50
717.40	801.00
717.52	818.50
717.63	789.00
717.75	819.00
717.87	807.50
717.99	830.00
718.11	807.00
718.23	878.00
718.35	833.50
718.47	811.00
718.59	759.00
718.71	816.00
718.83	789.00
718.95	829.00
719.07	773.50
719.19	811.00
719.30	799.00
719.42	828.00
719.54	801.00
719.66	818.00
719.78	807.00
719.90	745.50
720.02	808.50
720.14	829.00
720.26	851.50
720.38	837.50
720.50	786.00
720.62	735.50
720.74	806.00
720.85	810.00
720.97	876.50
721.09	899.50
721.21	804.00
721.33	866.00
721.45	830.50
721.57	836.50
721.69	780.00
721.81	759.50
721.93	872.00
722.05	822.50
722.16	786.00
722.28	741.50
722.40	785.00
722.52	867.00
722.64	875.00
722.76	779.50
722.88	829.50
723.00	830.50
723.12	796.00
723.24	824.50
723.36	754.50
723.47	854.50
723.59	822.00
723.71	794.00
723.83	828.00
723.95	784.50
724.07	803.50
724.19	830.50
724.31	897.00
724.43	783.00
724.55	744.00
724.66	781.50
724.78	948.50
724.90	775.50
725.02	777.50
725.14	788.00
725.26	810.00
725.38	741.50
725.50	804.00
725.62	819.50
725.74	807.00
725.85	804.00
725.97	815.50
726.09	873.00
726.21	1144.00
726.33	843.50
726.45	811.00
726.57	783.00
726.69	816.00
726.81	823.00
726.92	814.00
727.04	813.50
727.16	823.00
727.28	787.00
727.40	796.00
727.52	824.50
727.64	933.00
727.76	895.00
727.88	837.00
727.99	785.50
728.11	767.50
728.23	807.00
728.35	786.00
728.47	782.00
728.59	795.00
728.71	819.50
728.83	813.00
728.94	844.00
729.06	897.00
729.18	867.50
729.30	830.50
729.42	823.50
729.54	876.50
729.66	903.00
729.78	806.00
729.90	819.50
730.01	783.50
730.13	742.00
730.25	809.50
730.37	797.50
730.49	825.50
730.61	819.50
730.73	827.50
730.84	850.00
730.96	840.50
731.08	828.00
731.20	821.00
731.32	823.50
731.44	972.00
731.56	820.50
731.68	766.50
731.79	819.00
731.91	791.50
732.03	796.50
732.15	805.00
732.27	786.00
732.39	796.50
732.51	854.00
732.62	785.00
732.74	806.50
732.86	861.50
732.98	831.50
733.10	817.50
733.22	818.50
733.34	832.00
733.45	753.50
733.57	813.00
733.69	771.50
733.81	792.00
733.93	817.00
734.05	738.00
734.17	800.50
734.28	811.50
734.40	813.50
734.52	790.50
734.64	797.00
734.76	881.50
734.88	823.50
735.00	775.50
735.11	812.50
735.23	865.00
735.35	813.50
735.47	753.50
735.59	848.00
735.71	811.50
735.83	826.00
735.94	835.00
736.06	815.50
736.18	863.50
736.30	867.50
736.42	844.50
736.54	828.50
736.65	829.00
736.77	950.00
736.89	859.00
737.01	814.50
737.13	923.50
737.25	745.50
737.36	779.50
737.48	809.00
737.60	815.50
737.72	790.00
737.84	806.00
737.96	848.00
738.08	809.00
738.19	907.50
738.31	810.50
738.43	822.50
738.55	824.50
738.67	818.50
738.79	777.50
738.90	804.50
739.02	821.50
739.14	794.00
739.26	808.50
739.38	815.50
739.50	841.00
739.61	820.50
739.73	815.50
739.85	817.50
739.97	819.50
740.09	865.50
740.20	771.00
740.32	817.00
740.44	851.00
740.56	788.00
740.68	806.50
740.80	820.50
740.91	819.50
741.03	854.50
741.15	836.00
741.27	805.50
741.39	849.50
741.51	830.00
741.62	853.00
741.74	816.00
741.86	813.50
741.98	772.00
742.10	819.50
742.21	824.50
742.33	822.00
742.45	787.00
742.57	868.00
742.69	810.00
742.80	833.00
742.92	801.00
743.04	804.50
743.16	803.00
743.28	875.00
743.40	780.00
743.51	786.50
743.63	781.00
743.75	818.00
743.87	799.50
743.99	843.50
744.10	808.50
744.22	823.00
744.34	802.00
744.46	844.00
744.58	820.00
744.69	750.00
744.81	815.50
744.93	767.00
745.05	773.50
745.17	888.50
745.28	887.00
745.40	838.50
745.52	823.50
745.64	829.50
745.76	859.00
745.87	791.50
745.99	792.50
746.11	827.00
746.23	771.50
746.35	820.00
746.46	783.00
746.58	917.00
746.70	824.00
746.82	830.50
746.94	808.50
747.05	790.50
747.17	768.00
747.29	752.50
747.41	796.00
747.53	948.00
747.64	794.00
747.76	853.50
747.88	856.00
748.00	857.50
748.12	811.50
748.23	818.00
748.35	837.50
748.47	872.00
748.59	858.50
748.70	798.50
748.82	774.50
748.94	774.00
749.06	793.50
749.18	792.00
749.29	792.00
749.41	822.00
749.53	812.50
749.65	794.50
749.76	842.50
749.88	813.00
750.00	821.50
750.12	851.00
750.24	827.50
750.35	802.50
750.47	776.50
750.59	826.50
750.71	805.00
750.82	851.00
750.94	788.50
751.06	801.50
751.18	797.50
751.30	860.50
751.41	839.50
751.53	849.00
751.65	794.00
751.77	790.50
751.88	820.00
752.00	853.00
752.12	769.00
752.24	862.00
752.35	834.00
752.47	844.50
752.59	844.50
752.71	895.50
752.83	791.00
752.94	870.00
753.06	788.00
753.18	829.00
753.30	801.50
753.41	746.50
753.53	797.50
753.65	802.50
753.77	868.50
753.88	786.50
754.00	823.50
754.12	820.50
754.24	887.00
754.35	796.00
754.47	756.00
754.59	835.50
754.71	839.50
754.82	822.50
754.94	797.00
755.06	880.00
755.18	841.50
755.29	837.00
755.41	798.50
755.53	847.50
755.65	796.00
755.76	824.50
755.88	818.00
756.00	877.50
756.12	793.50
756.23	724.50
756.35	793.50
756.47	859.50
756.59	803.00
756.70	796.50
756.82	792.00
756.94	793.50
757.06	827.50
757.17	832.50
757.29	808.50
757.41	769.00
757.53	831.00
757.64	819.00
757.76	820.00
757.88	832.00
758.00	839.00
758.11	800.00
758.23	777.50
758.35	841.00
758.47	780.00
758.58	831.00
758.70	768.00
758.82	793.50
758.94	791.50
759.05	817.00
759.17	779.50
759.29	809.00
759.40	872.50
759.52	802.00
759.64	807.50
759.76	822.50
759.87	831.00
759.99	836.00
760.11	792.00
760.23	827.00
760.34	865.00
760.46	842.50
760.58	810.00
760.70	822.00
760.81	861.00
760.93	834.00
761.05	840.00
761.16	832.00
761.28	801.50
761.40	794.00
761.52	778.50
761.63	862.50
761.75	843.00
761.87	790.50
761.98	760.50
762.10	832.50
762.22	813.50
762.34	864.50
762.45	805.00
762.57	848.00
762.69	938.00
762.81	825.50
762.92	837.50
763.04	777.50
763.16	846.00
763.27	846.50
763.39	795.50
763.51	845.50
763.63	838.00
763.74	799.50
763.86	755.00
763.98	783.00
764.09	803.50
764.21	824.50
764.33	773.00
764.44	793.50
764.56	823.50
764.68	786.00
764.80	802.50
764.91	762.50
765.03	870.50
765.15	789.00
765.26	801.50
765.38	786.00
765.50	847.00
765.62	825.00
765.73	810.00
765.85	825.00
765.97	771.00
766.08	818.00
766.20	828.50
766.32	822.00
766.43	860.00
766.55	846.00
766.67	814.50
766.79	826.00
766.90	782.50
767.02	755.50
767.14	770.50
767.25	779.50
767.37	908.50
767.49	835.00
767.60	803.50
767.72	863.50
767.84	838.50
767.95	792.00
768.07	781.50
768.19	845.00
768.31	848.50
768.42	835.50
768.54	809.00
768.66	817.00
768.77	865.50
768.89	812.50
769.01	793.00
769.12	837.50
769.24	819.00
769.36	776.00
769.47	778.00
769.59	775.50
769.71	826.50
769.82	814.50
769.94	804.50
770.06	782.00
770.17	854.50
770.29	817.00
770.41	839.00
770.53	838.00
770.64	773.00
770.76	813.50
770.88	845.00
770.99	848.50
771.11	779.50
771.23	840.00
771.34	819.50
771.46	920.50
771.58	874.00
771.69	846.00
771.81	811.50
771.93	862.50
772.04	803.50
772.16	847.00
772.28	816.00
772.39	864.50
772.51	816.50
772.63	836.00
772.74	816.50
772.86	808.50
772.98	937.50
773.09	793.50
773.21	805.50
773.33	838.50
773.44	842.00
773.56	807.00
773.68	820.00
773.79	874.00
773.91	809.00
774.03	833.50
774.14	814.00
774.26	865.50
774.38	787.50
774.49	769.50
774.61	818.50
774.73	829.00
774.84	804.50
774.96	785.50
775.08	820.00
775.19	851.50
775.31	861.50
775.43	824.50
775.54	798.50
775.66	769.00
775.77	865.00
775.89	783.50
776.01	852.50
776.12	862.00
776.24	845.00
776.36	777.00
776.47	801.50
776.59	838.50
776.71	865.00
776.82	772.50
776.94	777.00
777.06	801.50
777.17	879.00
777.29	773.00
777.41	794.00
777.52	852.00
777.64	828.50
777.75	843.50
777.87	753.00
777.99	798.00
778.10	865.00
778.22	804.00
778.34	823.50
778.45	801.00
778.57	862.50
778.69	846.50
778.80	830.00
778.92	916.50
779.04	839.00
779.15	812.50
779.27	851.50
779.38	855.50
779.50	877.00
779.62	776.50
779.73	813.00
779.85	756.00
779.97	928.00
780.08	820.50
780.20	823.00
780.31	859.00
780.43	860.50
780.55	796.50
780.66	824.00
780.78	835.00
780.90	917.00
781.01	797.00
781.13	809.50
781.25	818.50
781.36	876.50
781.48	795.50
781.59	804.00
781.71	854.50
781.83	840.00
781.94	792.00
782.06	788.50
782.18	864.00
782.29	802.00
782.41	764.00
782.52	857.00
782.64	862.00
782.76	838.50
782.87	838.00
782.99	810.00
783.10	949.00
783.22	965.00
783.34	825.00
783.45	826.00
783.57	816.50
783.69	794.00
783.80	828.00
783.92	852.00
784.03	817.00
784.15	797.50
784.27	808.00
784.38	792.00
784.50	786.50
784.61	821.50
784.73	786.50
784.85	800.00
784.96	797.00
785.08	875.00
785.19	856.00
785.31	817.00
785.43	796.50
785.54	792.00
785.66	845.50
785.77	830.50
785.89	845.00
786.01	769.50
786.12	810.00
786.24	824.50
786.35	877.50
786.47	826.00
786.59	806.50
786.70	779.50
786.82	833.00
786.93	844.00
787.05	812.00
787.17	835.50
787.28	818.00
787.40	818.00
787.51	841.50
787.63	834.00
787.75	769.50
787.86	827.00
787.98	860.50
788.09	815.00
788.21	843.00
788.33	847.50
788.44	844.00
788.56	799.50
788.67	844.00
788.79	790.50
788.91	816.00
789.02	797.00
789.14	809.50
789.25	907.50
789.37	843.00
789.48	805.50
789.60	831.00
789.72	796.50
789.83	841.50
789.95	820.50
790.06	782.50
790.18	783.00
790.30	845.00
790.41	834.00
790.53	803.00
790.64	775.00
790.76	789.50
790.87	811.00
790.99	825.50
791.11	825.00
791.22	802.00
791.34	818.00
791.45	847.50
791.57	854.00
791.68	809.00
791.80	805.00
791.92	853.00
792.03	797.50
792.15	776.00
792.26	811.50
792.38	782.50
792.49	827.50
792.61	808.50
792.73	827.50
792.84	812.50
792.96	921.00
793.07	819.00
793.19	1580.00
793.30	909.50
793.42	857.00
793.54	755.50
793.65	780.50
793.77	961.50
793.88	816.50
794.00	762.00
794.11	826.00
794.23	769.00
794.34	833.00
794.46	764.00
794.58	771.00
794.69	915.50
794.81	893.00
794.92	793.50
795.04	774.00
795.15	893.50
795.27	854.50
795.39	829.50
795.50	796.00
795.62	789.00
795.73	798.00
795.85	795.00
795.96	826.00
796.08	875.00
796.19	801.00
796.31	799.00
796.42	774.00
796.54	780.00
796.66	858.00
796.77	781.00
796.89	774.00
797.00	864.50
797.12	747.50
797.23	802.00
797.35	838.50
797.46	855.00
797.58	872.00
797.69	835.00
797.81	807.00
797.93	817.50
798.04	794.00
798.16	807.50
798.27	833.50
798.39	777.00
798.50	773.00
798.62	771.00
798.73	770.00
798.85	887.50
798.96	815.50
799.08	843.00
799.19	850.50
799.31	816.00
799.43	812.50
799.54	794.00
799.66	820.50
799.77	856.00
799.89	785.00
800.00	759.00
800.12	800.00
800.23	859.00
800.35	899.00
800.46	754.50
800.58	736.50
800.69	804.50
800.81	806.00
800.92	775.50
801.04	813.50
801.16	758.50
801.27	760.50
801.39	792.50
801.50	793.00
801.62	807.50
801.73	866.00
801.85	856.00
801.96	776.50
802.08	863.50
802.19	860.50
802.31	795.00
802.42	811.50
802.54	894.00
802.65	863.00
802.77	773.50
802.88	825.50
803.00	764.00
803.11	927.00
803.23	818.50
803.34	808.50
803.46	837.50
803.57	773.00
803.69	844.50
803.80	769.00
803.92	863.50
804.03	800.50
804.15	832.00
804.26	845.00
804.38	852.50
804.50	797.00
804.61	822.00
804.73	808.00
804.84	817.00
804.96	740.50
805.07	807.00
805.19	770.50
805.30	830.50
805.42	861.00
805.53	816.50
805.65	797.00
805.76	766.50
805.88	791.50
805.99	830.50
806.11	833.50
806.22	783.50
806.34	797.50
806.45	815.50
806.57	794.50
806.68	845.50
806.80	743.50
806.91	780.50
807.03	769.00
807.14	762.00
807.26	761.50
807.37	757.00
807.49	820.50
807.60	783.00
807.72	878.00
807.83	878.00
807.95	818.50
808.06	834.00
808.17	836.00
808.29	847.50
808.40	783.00
808.52	812.00
808.63	825.00
808.75	842.00
808.86	814.50
808.98	825.50
809.09	787.50
809.21	825.50
809.32	799.00
809.44	840.00
809.55	768.50
809.67	811.00
809.78	781.50
809.90	844.00
810.01	876.50
810.13	786.00
810.24	842.00
810.36	774.50
810.47	830.00
810.59	823.50
810.70	838.00
810.82	851.00
810.93	776.00
811.05	789.00
811.16	794.50
811.27	791.00
811.39	815.50
811.50	841.00
811.62	757.00
811.73	750.50
811.85	822.00
811.96	814.00
812.08	841.00
812.19	819.00
812.31	843.00
812.42	799.00
812.54	796.00
812.65	852.00
812.77	856.00
812.88	846.50
813.00	836.00
813.11	837.50
813.22	778.00
813.34	788.00
813.45	816.00
813.57	892.00
813.68	908.00
813.80	818.00
813.91	778.50
814.03	807.00
814.14	896.00
814.26	796.50
814.37	807.50
814.49	811.50
814.60	786.00
814.71	796.50
814.83	815.00
814.94	769.50
815.06	806.50
815.17	808.50
815.29	808.00
815.40	776.50
815.52	892.50
815.63	806.50
815.75	793.50
815.86	812.00
815.97	779.00
816.09	817.00
816.20	833.00
816.32	835.00
816.43	762.00
816.55	821.00
816.66	792.00
816.78	892.50
816.89	829.00
817.00	829.00
817.12	799.00
817.23	789.00
817.35	849.50
817.46	818.00
817.58	782.00
817.69	900.00
817.81	815.00
817.92	854.00
818.03	823.00
818.15	829.50
818.26	780.00
818.38	775.50
818.49	809.50
818.61	824.50
818.72	771.50
818.83	1618.50
818.95	921.00
819.06	787.00
819.18	807.50
819.29	825.00
819.41	812.00
819.52	836.50
819.64	823.00
819.75	799.50
819.86	764.50
819.98	797.50
820.09	847.50
820.21	815.50
820.32	775.50
820.44	838.50
820.55	890.50
820.66	805.50
820.78	854.00
820.89	818.50
821.01	842.50
821.12	821.00
821.23	833.00
821.35	811.50
821.46	867.00
821.58	824.50
821.69	812.50
821.81	793.00
821.92	873.00
822.03	825.50
822.15	837.50
822.26	783.50
822.38	786.50
822.49	838.50
822.61	821.50
822.72	829.00
822.83	874.50
822.95	816.00
823.06	825.50
823.18	861.00
823.29	880.50
823.40	855.50
823.52	820.00
823.63	773.50
823.75	908.50
823.86	815.00
823.97	777.00
824.09	866.00
824.20	796.50
824.32	841.00
824.43	811.50
824.55	862.50
824.66	918.50
824.77	821.50
824.89	830.50
825.00	884.00
825.12	836.50
825.23	855.50
825.34	772.50
825.46	789.50
825.57	855.00
825.69	806.00
825.80	756.00
825.91	795.00
826.03	779.50
826.14	837.00
826.26	791.00
826.37	824.00
826.48	804.50
826.60	813.00
826.71	791.00
826.83	835.00
826.94	837.50
827.05	868.50
827.17	858.00
827.28	817.00
827.39	809.50
827.51	785.00
827.62	818.00
827.74	830.00
827.85	811.00
827.96	795.00
828.08	811.00
828.19	917.50
828.31	812.50
828.42	757.00
828.53	826.00
828.65	867.50
828.76	862.50
828.87	831.50
828.99	781.50
