Wavelength (nm)	Intensity
377.35	804.00
377.48	594.50
377.62	616.50
377.75	610.25
377.88	829.50
378.02	814.25
378.15	812.00
378.28	783.00
378.41	856.50
378.55	830.25
378.68	811.25
378.81	793.25
378.95	820.75
379.08	805.75
379.21	775.25
379.35	838.75
379.48	838.75
379.61	886.25
379.74	810.25
379.88	796.50
380.01	869.50
380.14	936.00
380.28	853.75
380.41	778.00
380.54	821.75
380.68	845.50
380.81	758.75
380.94	853.25
381.07	878.75
381.21	881.75
381.34	809.00
381.47	756.75
381.61	960.50
381.74	823.75
381.87	781.75
382.00	842.00
382.14	910.50
382.27	851.00
382.40	805.00
382.54	888.25
382.67	877.00
382.80	785.75
382.93	794.75
383.07	820.50
383.20	821.50
383.33	849.50
383.47	792.00
383.60	776.25
383.73	961.50
383.86	851.75
384.00	810.50
384.13	801.50
384.26	857.00
384.40	868.25
384.53	817.75
384.66	851.50
384.79	829.50
384.93	808.50
385.06	802.00
385.19	839.00
385.33	945.25
385.46	853.00
385.59	791.75
385.72	838.75
385.86	786.00
385.99	803.00
386.12	806.75
386.25	785.75
386.39	853.75
386.52	880.75
386.65	814.00
386.79	803.50
386.92	800.50
387.05	908.50
387.18	772.25
387.32	785.25
387.45	855.25
387.58	833.25
387.71	804.50
387.85	790.75
387.98	837.00
388.11	852.50
388.25	831.75
388.38	817.25
388.51	862.50
388.64	863.25
388.78	806.25
388.91	779.25
389.04	816.00
389.17	926.75
389.31	828.50
389.44	844.25
389.57	867.25
389.70	846.75
389.84	804.25
389.97	797.25
390.10	800.50
390.24	843.75
390.37	809.50
390.50	797.75
390.63	886.75
390.77	822.25
390.90	823.00
391.03	820.25
391.16	775.75
391.30	805.75
391.43	806.50
391.56	801.25
391.69	787.25
391.83	870.25
391.96	822.75
392.09	807.50
392.22	902.00
392.36	835.25
392.49	783.50
392.62	814.50
392.75	848.25
392.89	883.75
393.02	792.25
393.15	784.75
393.28	772.25
393.42	893.25
393.55	765.75
393.68	795.50
393.81	755.50
393.95	809.50
394.08	797.50
394.21	794.75
394.34	861.50
394.48	851.50
394.61	857.00
394.74	827.50
394.87	869.25
395.01	847.50
395.14	853.50
395.27	799.75
395.40	915.25
395.54	914.50
395.67	824.25
395.80	801.00
395.93	856.75
396.07	794.00
396.20	794.75
396.33	760.50
396.46	807.75
396.59	819.25
396.73	802.25
396.86	797.25
396.99	881.25
397.12	850.00
397.26	822.50
397.39	819.75
397.52	1101.50
397.65	927.75
397.79	817.75
397.92	811.75
398.05	871.25
398.18	801.75
398.32	812.75
398.45	842.00
398.58	839.25
398.71	850.25
398.84	775.00
398.98	812.00
399.11	853.25
399.24	841.50
399.37	809.75
399.51	781.75
399.64	817.50
399.77	821.75
399.90	812.25
400.03	815.25
400.17	789.50
400.30	889.00
400.43	852.50
400.56	816.25
400.70	822.50
400.83	793.25
400.96	786.75
401.09	830.75
401.23	827.75
401.36	889.25
401.49	807.00
401.62	843.75
401.75	830.25
401.89	798.75
402.02	815.25
402.15	819.50
402.28	845.25
402.41	834.00
402.55	798.50
402.68	809.75
402.81	894.25
402.94	870.00
403.08	798.25
403.21	780.00
403.34	865.50
403.47	861.50
403.60	812.75
403.74	850.50
403.87	861.00
404.00	795.75
404.13	793.50
404.26	771.75
404.40	796.75
404.53	838.75
404.66	809.00
404.79	784.25
404.93	861.75
405.06	831.25
405.19	771.50
405.32	829.50
405.45	847.75
405.59	864.25
405.72	809.75
405.85	793.25
405.98	991.75
406.11	793.75
406.25	792.75
406.38	803.75
406.51	853.25
406.64	823.75
406.77	769.75
406.91	771.75
407.04	840.25
407.17	817.00
407.30	837.50
407.43	811.75
407.57	896.75
407.70	881.00
407.83	793.25
407.96	814.75
408.09	787.00
408.23	903.50
408.36	818.50
408.49	811.00
408.62	934.25
408.75	832.75
408.89	799.00
409.02	839.25
409.15	828.75
409.28	911.00
409.41	845.50
409.55	805.75
409.68	948.50
409.81	840.25
409.94	795.75
410.07	825.25
410.20	831.50
410.34	814.50
410.47	817.00
410.60	831.50
410.73	858.50
410.86	790.75
411.00	819.00
411.13	803.50
411.26	839.25
411.39	831.75
411.52	838.25
411.66	807.00
411.79	800.50
411.92	793.50
412.05	807.00
412.18	803.00
412.31	852.25
412.45	882.00
412.58	856.75
412.71	783.00
412.84	836.00
412.97	906.50
413.11	834.00
413.24	838.25
413.37	870.50
413.50	920.00
413.63	832.50
413.76	819.50
413.90	855.50
414.03	809.75
414.16	810.75
414.29	849.00
414.42	825.00
414.56	935.25
414.69	812.00
414.82	821.00
414.95	821.00
415.08	847.25
415.21	826.50
415.35	836.00
415.48	751.25
415.61	866.75
415.74	871.00
415.87	778.50
416.00	837.00
416.14	942.50
416.27	834.50
416.40	797.25
416.53	822.75
416.66	845.75
416.79	831.25
416.93	783.75
417.06	834.50
417.19	819.50
417.32	812.00
417.45	800.00
417.58	779.50
417.72	871.75
417.85	806.00
417.98	817.00
418.11	861.25
418.24	809.00
418.37	804.00
418.51	815.50
418.64	836.75
418.77	911.00
418.90	846.00
419.03	791.75
419.16	838.50
419.29	870.50
419.43	806.25
419.56	786.75
419.69	943.50
419.82	878.75
419.95	818.00
420.08	864.50
420.22	894.00
420.35	956.50
420.48	866.25
420.61	817.00
420.74	766.75
420.87	867.50
421.00	791.50
421.14	810.00
421.27	864.75
421.40	899.75
421.53	848.00
421.66	823.00
421.79	818.50
421.93	824.25
422.06	819.75
422.19	799.75
422.32	871.00
422.45	881.75
422.58	836.75
422.71	813.00
422.85	863.50
422.98	865.50
423.11	778.50
423.24	765.50
423.37	796.25
423.50	807.25
423.63	827.50
423.77	793.50
423.90	795.00
424.03	851.00
424.16	852.00
424.29	820.00
424.42	774.75
424.55	792.00
424.69	789.75
424.82	822.25
424.95	844.75
425.08	797.25
425.21	833.50
425.34	809.50
425.47	826.25
425.60	847.75
425.74	777.25
425.87	813.25
426.00	808.50
426.13	835.25
426.26	792.75
426.39	796.75
426.52	817.75
426.66	897.50
426.79	854.75
426.92	797.50
427.05	932.50
427.18	881.00
427.31	812.25
427.44	814.25
427.57	797.50
427.71	835.50
427.84	790.00
427.97	818.50
428.10	883.50
428.23	828.75
428.36	805.50
428.49	740.00
428.62	957.50
428.76	924.00
428.89	832.50
429.02	782.50
429.15	820.75
429.28	919.25
429.41	807.75
429.54	822.00
429.67	822.00
429.81	851.50
429.94	828.50
430.07	802.25
430.20	861.50
430.33	888.00
430.46	784.25
430.59	792.00
430.72	822.25
430.85	777.25
430.99	820.50
431.12	795.50
431.25	882.00
431.38	901.25
431.51	828.50
431.64	827.25
431.77	902.50
431.90	904.25
432.03	831.75
432.17	795.00
432.30	840.50
432.43	853.00
432.56	827.75
432.69	844.25
432.82	844.00
432.95	880.75
433.08	826.50
433.21	829.75
433.35	811.75
433.48	826.75
433.61	786.50
433.74	818.50
433.87	806.75
434.00	867.00
434.13	796.25
434.26	847.75
434.39	855.50
434.53	860.00
434.66	828.50
434.79	818.25
434.92	817.50
435.05	900.75
435.18	805.75
435.31	846.00
435.44	891.00
435.57	838.00
435.70	824.75
435.84	797.50
435.97	895.50
436.10	947.00
436.23	816.50
436.36	792.75
436.49	820.25
436.62	842.00
436.75	821.00
436.88	846.25
437.01	806.00
437.14	801.75
437.28	785.50
437.41	812.75
437.54	895.00
437.67	851.50
437.80	809.50
437.93	787.25
438.06	960.50
438.19	881.75
438.32	786.50
438.45	797.00
438.58	851.25
438.72	913.50
438.85	863.25
438.98	811.75
439.11	852.25
439.24	903.50
439.37	887.75
439.50	852.75
439.63	876.00
439.76	807.50
439.89	803.00
440.02	807.00
440.15	857.00
440.29	903.00
440.42	830.50
440.55	824.50
440.68	911.00
440.81	960.25
440.94	844.50
441.07	833.25
441.20	930.00
441.33	849.25
441.46	817.25
441.59	809.75
441.72	825.25
441.85	847.00
441.99	867.50
442.12	858.50
442.25	923.75
442.38	855.25
442.51	840.75
442.64	783.50
442.77	837.00
442.90	810.25
443.03	783.75
443.16	811.50
443.29	835.25
443.42	910.00
443.55	808.00
443.68	828.00
443.82	787.00
443.95	816.50
444.08	812.25
444.21	832.50
444.34	807.00
444.47	825.25
444.60	822.75
444.73	848.75
444.86	833.25
444.99	903.25
445.12	857.50
445.25	843.25
445.38	857.25
445.51	879.50
445.64	838.00
445.78	803.25
445.91	771.75
446.04	939.75
446.17	877.75
446.30	791.75
446.43	857.75
446.56	841.00
446.69	806.75
446.82	815.00
446.95	888.50
447.08	908.50
447.21	849.75
447.34	815.25
447.47	891.00
447.60	877.50
447.73	832.25
447.86	864.25
447.99	835.00
448.13	845.00
448.26	869.75
448.39	823.50
448.52	869.75
448.65	873.25
448.78	838.75
448.91	829.75
449.04	867.25
449.17	824.75
449.30	855.50
449.43	840.75
449.56	829.50
449.69	898.50
449.82	824.50
449.95	792.25
450.08	901.00
450.21	870.25
450.34	836.75
450.47	840.00
450.60	882.50
450.73	844.00
450.87	818.75
451.00	856.25
451.13	880.75
451.26	983.75
451.39	817.00
451.52	861.00
451.65	833.25
451.78	827.00
451.91	822.00
452.04	814.75
452.17	921.25
452.30	918.50
452.43	824.75
452.56	819.25
452.69	892.50
452.82	814.00
452.95	872.75
453.08	803.50
453.21	761.00
453.34	874.75
453.47	811.00
453.60	882.25
453.73	930.50
453.86	869.75
453.99	854.75
454.12	848.00
454.25	837.75
454.38	843.25
454.52	806.00
454.65	819.50
454.78	814.00
454.91	799.75
455.04	820.75
455.17	806.75
455.30	816.00
455.43	893.50
455.56	822.00
455.69	787.00
455.82	864.00
455.95	855.00
456.08	796.75
456.21	792.25
456.34	792.25
456.47	782.75
456.60	825.00
456.73	799.75
456.86	831.50
456.99	870.50
457.12	805.25
457.25	818.00
457.38	900.25
457.51	873.75
457.64	853.75
457.77	825.25
457.90	825.25
458.03	819.50
458.16	826.75
458.29	831.25
458.42	828.25
458.55	784.25
458.68	808.00
458.81	822.75
458.94	905.50
459.07	943.00
459.20	794.25
459.33	817.50
459.46	907.25
459.59	937.50
459.72	890.25
459.85	829.25
459.98	916.50
460.11	876.50
460.24	842.25
460.37	799.50
460.50	886.25
460.63	866.00
460.76	830.00
460.89	848.25
461.02	867.75
461.15	877.00
461.28	841.00
461.41	825.00
461.54	919.50
461.67	812.00
461.80	844.50
461.93	887.50
462.06	870.75
462.19	899.50
462.32	834.00
462.45	816.75
462.58	871.50
462.71	833.50
462.84	838.25
462.97	789.25
463.10	835.75
463.23	853.00
463.36	868.25
463.49	843.75
463.62	801.00
463.75	875.75
463.88	827.00
464.01	840.25
464.14	806.00
464.27	941.75
464.40	836.00
464.53	837.50
464.66	873.00
464.79	867.75
464.92	848.75
465.05	812.25
465.18	852.50
465.31	845.75
465.44	833.50
465.57	814.00
465.70	832.75
465.83	955.75
465.96	861.25
466.09	823.50
466.22	882.75
466.35	868.50
466.48	821.75
466.61	815.50
466.74	837.50
466.87	884.50
467.00	877.00
467.13	871.50
467.26	881.75
467.39	799.25
467.52	799.25
467.65	832.25
467.78	913.50
467.91	853.50
468.04	854.75
468.17	825.75
468.30	838.00
468.43	801.25
468.56	826.25
468.69	858.25
468.82	872.25
468.95	812.25
469.08	836.75
469.21	848.00
469.34	886.50
469.47	952.00
469.60	930.50
469.73	863.50
469.86	870.25
469.99	898.00
470.11	822.50
470.24	826.75
470.37	890.75
470.50	854.50
470.63	828.25
470.76	843.50
470.89	893.50
471.02	959.00
471.15	839.00
471.28	843.00
471.41	946.00
471.54	879.50
471.67	828.50
471.80	785.25
471.93	900.25
472.06	872.25
472.19	843.75
472.32	827.00
472.45	960.00
472.58	906.25
472.71	863.00
472.84	835.50
472.97	834.50
473.10	811.00
473.23	890.00
473.36	801.75
473.49	912.50
473.62	894.75
473.74	876.75
473.87	895.75
474.00	832.50
474.13	841.25
474.26	869.25
474.39	879.75
474.52	861.75
474.65	850.75
474.78	865.25
474.91	810.75
475.04	888.00
475.17	979.75
475.30	879.75
475.43	877.00
475.56	929.75
475.69	874.00
475.82	885.00
475.95	831.75
476.08	929.50
476.21	874.00
476.34	893.50
476.46	897.25
476.59	930.00
476.72	861.00
476.85	852.50
476.98	832.00
477.11	921.50
477.24	869.50
477.37	812.50
477.50	849.75
477.63	884.50
477.76	838.75
477.89	807.00
478.02	822.75
478.15	870.75
478.28	860.00
478.41	879.00
478.54	845.75
478.66	912.00
478.79	857.00
478.92	859.75
479.05	857.25
479.18	883.50
479.31	850.00
479.44	849.75
479.57	842.50
479.70	871.50
479.83	890.25
479.96	850.75
480.09	885.25
480.22	1008.25
480.35	983.25
480.48	918.75
480.60	887.25
480.73	853.00
480.86	897.75
480.99	858.50
481.12	867.75
481.25	877.00
481.38	946.25
481.51	865.75
481.64	889.00
481.77	902.25
481.90	869.00
482.03	870.25
482.16	864.75
482.29	940.25
482.41	888.25
482.54	910.00
482.67	860.00
482.80	887.50
482.93	929.50
483.06	858.00
483.19	938.00
483.32	910.50
483.45	889.25
483.58	890.25
483.71	919.25
483.84	936.25
483.97	912.25
484.09	885.75
484.22	867.50
484.35	864.50
484.48	842.25
484.61	861.75
484.74	876.50
484.87	905.50
485.00	851.50
485.13	907.50
485.26	845.25
485.39	915.50
485.52	882.50
485.64	952.50
485.77	917.00
485.90	934.75
486.03	851.50
486.16	897.50
486.29	852.75
486.42	887.00
486.55	903.00
486.68	870.00
486.81	916.75
486.94	907.75
487.06	879.00
487.19	918.50
487.32	915.00
487.45	899.50
487.58	866.25
487.71	891.75
487.84	855.75
487.97	929.00
488.10	935.75
488.23	869.00
488.35	840.25
488.48	880.75
488.61	857.00
488.74	877.25
488.87	878.25
489.00	896.25
489.13	995.25
489.26	930.75
489.39	929.50
489.52	944.25
489.64	933.50
489.77	914.25
489.90	904.00
490.03	896.50
490.16	878.25
490.29	876.50
490.42	878.00
490.55	905.50
490.68	863.50
490.81	875.75
490.93	845.75
491.06	960.25
491.19	923.25
491.32	912.00
491.45	931.25
491.58	851.00
491.71	899.25
491.84	885.25
491.97	890.75
492.09	965.50
492.22	926.25
492.35	908.50
492.48	939.25
492.61	914.00
492.74	895.25
492.87	925.50
493.00	917.00
493.12	886.50
493.25	908.50
493.38	898.50
493.51	866.25
493.64	848.50
493.77	894.75
493.90	918.75
494.03	925.50
494.16	971.25
494.28	975.75
494.41	898.50
494.54	901.00
494.67	1021.25
494.80	984.50
494.93	905.75
495.06	920.25
495.19	935.50
495.31	924.75
495.44	894.25
495.57	879.50
495.70	934.00
495.83	916.00
495.96	882.50
496.09	916.25
496.22	980.50
496.34	1011.50
496.47	909.75
496.60	931.50
496.73	960.25
496.86	957.75
496.99	888.75
497.12	921.25
497.24	866.50
497.37	934.75
497.50	904.00
497.63	883.25
497.76	914.75
497.89	986.50
498.02	941.50
498.15	837.25
498.27	919.00
498.40	976.00
498.53	982.25
498.66	932.25
498.79	970.50
498.92	883.25
499.05	930.50
499.17	917.00
499.30	965.00
499.43	1013.75
499.56	939.75
499.69	863.00
499.82	938.75
499.95	900.00
500.07	890.50
500.20	917.75
500.33	962.00
500.46	1062.25
500.59	926.00
500.72	930.00
500.85	965.00
500.97	974.25
501.10	972.50
501.23	883.00
501.36	938.50
501.49	996.00
501.62	948.75
501.75	932.75
501.87	979.25
502.00	881.25
502.13	940.50
502.26	931.50
502.39	911.00
502.52	921.00
502.64	881.00
502.77	904.50
502.90	967.75
503.03	921.75
503.16	909.00
503.29	907.00
503.42	988.75
503.54	942.00
503.67	940.00
503.80	931.00
503.93	980.00
504.06	897.00
504.19	927.25
504.31	985.00
504.44	946.25
504.57	956.00
504.70	949.25
504.83	881.50
504.96	956.25
505.08	936.25
505.21	938.25
505.34	1040.25
505.47	989.25
505.60	964.75
505.73	985.25
505.85	971.00
505.98	1070.50
506.11	937.25
506.24	907.25
506.37	902.50
506.50	949.00
506.62	979.75
506.75	920.25
506.88	912.25
507.01	957.75
507.14	895.50
507.27	936.00
507.39	889.75
507.52	916.25
507.65	914.00
507.78	962.50
507.91	908.25
508.04	992.00
508.16	995.25
508.29	954.75
508.42	925.75
508.55	909.00
508.68	908.75
508.81	982.00
508.93	920.00
509.06	930.25
509.19	980.25
509.32	972.00
509.45	959.75
509.57	973.75
509.70	915.50
509.83	942.25
509.96	897.75
510.09	943.00
510.22	940.25
510.34	943.25
510.47	939.50
510.60	1060.25
510.73	964.25
510.86	963.50
510.98	933.00
511.11	936.50
511.24	989.75
511.37	973.25
511.50	936.50
511.63	958.50
511.75	966.50
511.88	953.75
512.01	976.25
512.14	963.25
512.27	963.75
512.39	941.75
512.52	935.00
512.65	956.25
512.78	919.75
512.91	957.00
513.03	950.50
513.16	996.25
513.29	973.50
513.42	943.75
513.55	919.50
513.67	973.75
513.80	904.25
513.93	924.75
514.06	928.50
514.19	969.25
514.31	972.25
514.44	988.00
514.57	939.25
514.70	959.75
514.83	1006.50
514.95	928.00
515.08	981.00
515.21	993.50
515.34	962.75
515.47	961.50
515.59	932.75
515.72	982.25
515.85	983.00
515.98	1021.50
516.11	963.25
516.23	999.25
516.36	1023.25
516.49	981.25
516.62	963.50
516.75	1025.25
516.87	1025.75
517.00	940.25
517.13	988.75
517.26	1014.75
517.39	988.50
517.51	898.75
517.64	970.00
517.77	1042.25
517.90	930.00
518.02	951.50
518.15	933.25
518.28	893.25
518.41	966.50
518.54	965.00
518.66	979.75
518.79	938.00
518.92	948.75
519.05	923.50
519.18	954.50
519.30	992.00
519.43	919.75
519.56	932.75
519.69	948.75
519.81	1016.25
519.94	953.25
520.07	905.50
520.20	944.75
520.33	972.75
520.45	1029.00
520.58	971.50
520.71	989.25
520.84	1022.75
520.96	997.25
521.09	967.75
521.22	950.00
521.35	995.50
521.48	1004.00
521.60	944.25
521.73	976.75
521.86	1021.50
521.99	1052.75
522.11	987.75
522.24	966.25
522.37	994.25
522.50	973.75
522.62	1030.50
522.75	922.50
522.88	981.75
523.01	954.00
523.14	990.50
523.26	986.25
523.39	1039.00
523.52	955.25
523.65	1053.25
523.77	999.25
523.90	987.75
524.03	963.00
524.16	963.50
524.28	969.25
524.41	972.25
524.54	971.75
524.67	931.50
524.79	956.00
524.92	998.00
525.05	1051.75
525.18	938.50
525.31	1013.25
525.43	946.75
525.56	1086.50
525.69	957.75
525.82	917.00
525.94	1012.75
526.07	1019.25
526.20	1002.25
526.33	1017.25
526.45	1105.00
526.58	1075.75
526.71	999.25
526.84	972.75
526.96	984.75
527.09	952.50
527.22	965.00
527.35	967.75
527.47	942.00
527.60	1050.00
527.73	948.25
527.86	1003.00
527.98	996.75
528.11	1004.50
528.24	952.00
528.37	971.25
528.49	943.25
528.62	984.50
528.75	1011.00
528.88	956.00
529.00	1012.75
529.13	1025.25
529.26	988.00
529.39	1012.00
529.51	1121.00
529.64	1090.25
529.77	962.25
529.90	969.50
530.02	977.00
530.15	960.00
530.28	920.00
530.40	955.00
530.53	976.25
530.66	1006.75
530.79	970.00
530.91	980.75
531.04	965.00
531.17	972.25
531.30	972.00
531.42	990.25
531.55	985.00
531.68	1048.00
531.81	961.00
531.93	980.50
532.06	1001.50
532.19	947.25
532.31	979.00
532.44	983.75
532.57	1006.50
532.70	965.75
532.82	991.50
532.95	1021.00
533.08	1067.00
533.21	1022.25
533.33	959.75
533.46	973.25
533.59	979.25
533.71	1100.00
533.84	1006.50
533.97	978.50
534.10	965.50
534.22	954.50
534.35	981.50
534.48	991.25
534.61	1014.00
534.73	927.25
534.86	961.50
534.99	1012.75
535.11	1044.50
535.24	1010.25
535.37	963.00
535.50	947.50
535.62	958.25
535.75	1050.25
535.88	996.75
536.00	971.25
536.13	977.25
536.26	980.75
536.39	972.00
536.51	946.25
536.64	1013.00
536.77	989.00
536.89	993.75
537.02	1000.25
537.15	1029.25
537.28	1002.50
537.40	1004.00
537.53	974.50
537.66	1039.75
537.78	1000.50
537.91	968.00
538.04	974.75
538.17	1035.00
538.29	1024.25
538.42	1072.25
538.55	1054.50
538.67	1026.50
538.80	970.25
538.93	1015.75
539.05	995.00
539.18	1071.50
539.31	1050.25
539.44	1008.50
539.56	925.25
539.69	995.25
539.82	989.00
539.94	992.75
540.07	977.25
540.20	1070.00
540.32	974.25
540.45	1000.00
540.58	985.25
540.71	1038.25
540.83	955.25
540.96	980.50
541.09	994.50
541.21	1083.00
541.34	1066.00
541.47	969.75
541.59	1006.00
541.72	1067.00
541.85	1152.00
541.98	1064.75
542.10	997.25
542.23	1025.00
542.36	1121.50
542.48	1014.75
542.61	1007.50
542.74	959.75
542.86	994.50
542.99	1003.50
543.12	985.50
543.24	1009.50
543.37	955.50
543.50	997.00
543.62	978.25
543.75	997.50
543.88	994.25
544.01	1011.25
544.13	1035.25
544.26	1038.00
544.39	988.25
544.51	990.75
544.64	970.75
544.77	1028.25
544.89	989.00
545.02	1017.75
545.15	989.00
545.27	1093.00
545.40	1072.75
545.53	1045.50
545.65	1026.50
545.78	944.25
545.91	975.25
546.03	991.50
546.16	1015.00
546.29	999.00
546.41	977.25
546.54	992.25
546.67	977.00
546.79	1044.75
546.92	1105.25
547.05	966.00
547.17	1005.25
547.30	981.75
547.43	1045.75
547.56	987.50
547.68	1001.50
547.81	965.50
547.94	1024.75
548.06	1000.75
548.19	979.75
548.32	1075.00
548.44	1033.75
548.57	1038.00
548.70	1057.25
548.82	1061.00
548.95	1052.00
549.08	1017.00
549.20	1001.00
549.33	1104.25
549.45	1024.75
549.58	1002.25
549.71	966.00
549.83	1069.50
549.96	972.25
550.09	1028.75
550.21	990.75
550.34	1031.00
550.47	1002.25
550.59	997.50
550.72	947.75
550.85	1009.75
550.97	1083.75
551.10	1006.00
551.23	1009.25
551.35	1091.25
551.48	1031.50
551.61	1006.50
551.73	1006.00
551.86	1096.00
551.99	1091.00
552.11	1022.50
552.24	1045.25
552.37	1034.50
552.49	1005.75
552.62	1011.00
552.75	1055.00
552.87	1005.25
553.00	1006.75
553.12	1033.00
553.25	1017.00
553.38	1051.50
553.50	1077.00
553.63	1016.00
553.76	965.50
553.88	1023.75
554.01	1011.50
554.14	1023.75
554.26	1053.25
554.39	1110.75
554.52	1021.00
554.64	1028.00
554.77	1003.75
554.89	1063.25
555.02	1072.50
555.15	1044.00
555.27	1036.50
555.40	1028.50
555.53	1093.00
555.65	1026.00
555.78	996.50
555.91	1062.75
556.03	1090.25
556.16	994.50
556.29	1027.75
556.41	1108.25
556.54	1094.00
556.66	1024.00
556.79	1011.25
556.92	1035.25
557.04	1052.50
557.17	1021.00
557.30	1017.75
557.42	1022.75
557.55	1030.75
557.67	1049.25
557.80	1017.00
557.93	1042.00
558.05	1039.00
558.18	1002.75
558.31	1038.25
558.43	1085.25
558.56	1054.75
558.68	1028.75
558.81	1011.75
558.94	1027.25
559.06	1149.25
559.19	1023.00
559.32	1021.00
559.44	998.50
559.57	1042.25
559.69	1005.00
559.82	995.50
559.95	1011.50
560.07	1009.25
560.20	952.50
560.33	1040.75
560.45	1052.25
560.58	981.75
560.70	1035.75
560.83	1003.50
560.96	1026.00
561.08	1031.50
561.21	1059.25
561.33	1009.50
561.46	988.75
561.59	1071.25
561.71	1025.50
561.84	1052.25
561.97	1008.25
562.09	1060.50
562.22	1024.25
562.34	1011.25
562.47	1065.75
562.60	1056.75
562.72	1037.25
562.85	1042.50
562.97	1039.75
563.10	1023.50
563.23	1000.50
563.35	1013.50
563.48	1060.75
563.60	1044.75
563.73	1061.00
563.86	995.25
563.98	1029.00
564.11	1037.00
564.23	1033.25
564.36	1095.75
564.49	1040.50
564.61	1103.25
564.74	1050.00
564.86	1021.00
564.99	1084.00
565.12	1072.00
565.24	1099.50
565.37	1082.25
565.49	1090.00
565.62	1120.00
565.75	1083.25
565.87	1012.50
566.00	1187.50
566.12	1113.50
566.25	1055.50
566.38	1082.25
566.50	1059.50
566.63	1089.50
566.75	1050.75
566.88	1026.50
567.01	1009.00
567.13	1035.25
567.26	1046.00
567.38	1027.25
567.51	1097.75
567.64	1030.25
567.76	1071.50
567.89	1056.25
568.01	1010.25
568.14	1014.25
568.26	1044.50
568.39	1064.75
568.52	1054.00
568.64	1088.50
568.77	1039.75
568.89	1041.25
569.02	1034.75
569.15	1049.50
569.27	1044.50
569.40	1072.50
569.52	1081.25
569.65	1041.25
569.77	1035.75
569.90	1010.50
570.03	999.75
570.15	1113.50
570.28	1055.00
570.40	1050.75
570.53	1041.50
570.66	1109.25
570.78	1079.00
570.91	1068.50
571.03	1027.50
571.16	1050.75
571.28	1011.75
571.41	997.25
571.54	998.25
571.66	990.50
571.79	1030.50
571.91	1025.50
572.04	1011.75
572.16	1069.25
572.29	1080.25
572.42	1039.25
572.54	1077.00
572.67	1026.50
572.79	1068.25
572.92	1037.25
573.04	1079.00
573.17	1114.50
573.29	1068.50
573.42	1040.00
573.55	1078.25
573.67	1082.50
573.80	1062.00
573.92	1020.75
574.05	1064.75
574.17	1107.25
574.30	1061.50
574.43	1046.00
574.55	1032.25
574.68	1060.00
574.80	1030.50
574.93	1045.50
575.05	1008.25
575.18	1043.25
575.30	1055.50
575.43	1092.50
575.56	1106.50
575.68	1080.00
575.81	1046.50
575.93	1036.75
576.06	1077.25
576.18	1100.50
576.31	1046.00
576.43	1028.00
576.56	1145.75
576.69	1124.50
576.81	1078.75
576.94	1043.00
577.06	1067.50
577.19	1096.75
577.31	1077.75
577.44	1081.50
577.56	1104.25
577.69	1073.25
577.82	1065.50
577.94	1041.75
578.07	1002.00
578.19	1079.75
578.32	1091.00
578.44	1037.00
578.57	1048.50
578.69	1110.00
578.82	1072.50
578.94	1094.50
579.07	1111.25
579.19	1092.00
579.32	1081.50
579.45	1073.25
579.57	1052.50
579.70	1022.75
579.82	1069.75
579.95	1048.75
580.07	1129.75
580.20	1060.25
580.32	1075.00
580.45	1100.50
580.57	1113.50
580.70	1079.75
580.82	1086.00
580.95	1087.25
581.08	1021.00
581.20	1109.75
581.33	1062.25
581.45	1076.75
581.58	1076.25
581.70	1083.50
581.83	993.50
581.95	1078.50
582.08	1105.00
582.20	1066.50
582.33	1076.75
582.45	1044.25
582.58	1055.75
582.70	1089.75
582.83	1042.00
582.95	1072.25
583.08	1115.00
583.21	1118.25
583.33	1088.00
583.46	1054.00
583.58	1032.50
583.71	1099.50
583.83	1073.00
583.96	1083.25
584.08	1105.75
584.21	1105.00
584.33	1099.00
584.46	1053.75
584.58	1039.00
584.71	1099.25
584.83	1105.00
584.96	1075.50
585.08	1053.25
585.21	1170.75
585.33	1132.75
585.46	1110.25
585.58	1122.25
585.71	1052.25
585.83	1078.50
585.96	1114.00
586.08	1098.25
586.21	1098.50
586.33	1106.75
586.46	1039.75
586.59	1107.75
586.71	1051.50
586.84	1086.75
586.96	1082.00
587.09	1023.50
587.21	1063.75
587.34	1107.25
587.46	1047.50
587.59	1028.50
587.71	1068.25
587.84	1064.50
587.96	1028.50
588.09	1034.75
588.21	1089.00
588.34	1067.75
588.46	1087.75
588.59	1051.50
588.71	1091.25
588.84	1080.75
588.96	1071.00
589.09	1163.75
589.21	1073.25
589.34	1053.50
589.46	1073.25
589.59	1083.50
589.71	1129.75
589.84	1027.75
589.96	1044.00
590.09	1065.75
590.21	1107.00
590.34	1084.00
590.46	1082.50
590.59	1056.50
590.71	1060.75
590.84	1120.50
590.96	1055.75
591.09	1097.75
591.21	1092.00
591.34	1060.25
591.46	1063.75
591.59	1140.00
591.71	1106.75
591.83	1072.75
591.96	1030.75
592.08	1069.25
592.21	1111.25
592.33	1097.00
592.46	1064.00
592.58	1093.00
592.71	1132.50
592.83	1160.00
592.96	1097.00
593.08	1126.25
593.21	1051.50
593.33	1033.50
593.46	1064.75
593.58	1067.75
593.71	1111.00
593.83	1126.75
593.96	1054.25
594.08	1195.75
594.21	1085.00
594.33	1064.00
594.46	1046.00
594.58	1033.25
594.71	1023.50
594.83	1081.75
594.96	1073.75
595.08	1237.00
595.20	1116.25
595.33	1086.50
595.45	1052.75
595.58	1169.00
595.70	1109.00
595.83	1073.25
595.95	1083.00
596.08	1098.25
596.20	1046.50
596.33	1040.00
596.45	1079.00
596.58	1049.00
596.70	1050.75
596.83	1072.50
596.95	1070.00
597.08	1092.25
597.20	1042.00
597.32	1059.00
597.45	1088.75
597.57	1080.25
597.70	1111.50
597.82	1072.00
597.95	1091.75
598.07	1076.50
598.20	1104.25
598.32	1074.00
598.45	1073.50
598.57	1136.00
598.70	1149.25
598.82	1081.25
598.94	1067.75
599.07	1127.50
599.19	1095.50
599.32	1066.75
599.44	1000.50
599.57	1120.25
599.69	1101.75
599.82	1080.00
599.94	1049.75
600.07	1131.50
600.19	1104.00
600.31	1049.50
600.44	1113.25
600.56	1194.00
600.69	1172.50
600.81	1066.75
600.94	1082.00
601.06	1096.50
601.19	1111.75
601.31	1128.25
601.44	1036.00
601.56	1151.25
601.68	1123.50
601.81	1102.50
601.93	1091.50
602.06	1107.00
602.18	1048.75
602.31	1089.50
602.43	1145.25
602.56	1123.75
602.68	1100.75
602.80	1092.50
602.93	1100.00
603.05	1073.25
603.18	1097.25
603.30	1054.50
603.43	1054.50
603.55	1088.00
603.68	1111.50
603.80	1104.25
603.92	1091.50
604.05	1068.50
604.17	1077.50
604.30	1062.50
604.42	1076.25
604.55	1089.75
604.67	1130.00
604.79	1067.75
604.92	1075.25
605.04	1080.75
605.17	1070.25
605.29	1065.25
605.42	1069.25
605.54	1171.00
605.66	1115.50
605.79	1114.75
605.91	1085.25
606.04	1097.00
606.16	1067.50
606.29	1101.75
606.41	1056.75
606.53	1073.75
606.66	1035.00
606.78	1084.50
606.91	1074.00
607.03	1066.75
607.16	1072.25
607.28	1051.50
607.40	1084.50
607.53	1108.75
607.65	1061.50
607.78	1065.50
607.90	1096.75
608.03	1196.75
608.15	1109.00
608.27	1100.25
608.40	1053.75
608.52	1113.75
608.65	1090.25
608.77	1126.75
608.89	1096.75
609.02	1174.50
609.14	1180.75
609.27	1126.50
609.39	1138.75
609.52	1065.00
609.64	1027.25
609.76	1064.50
609.89	1083.00
610.01	1148.75
610.14	1133.75
610.26	1077.00
610.38	1065.50
610.51	1138.50
610.63	1079.75
610.76	1053.00
610.88	1103.75
611.01	1143.25
611.13	1191.75
611.25	1135.25
611.38	1057.50
611.50	1091.50
611.63	1118.00
611.75	1106.00
611.87	1109.75
612.00	1074.00
612.12	1146.00
612.25	1089.50
612.37	1074.25
612.49	1159.00
612.62	1154.25
612.74	1164.50
612.87	1108.00
612.99	1094.25
613.11	1042.75
613.24	1093.25
613.36	1096.00
613.49	1113.75
613.61	1099.50
613.73	1084.25
613.86	1131.00
613.98	1083.00
614.11	1136.75
614.23	1145.25
614.35	1156.00
614.48	1139.50
614.60	1108.75
614.72	1099.25
614.85	1122.00
614.97	1125.75
615.10	1112.50
615.22	1091.25
615.34	1112.50
615.47	1156.75
615.59	1077.75
615.72	1105.50
615.84	1122.00
615.96	1074.25
616.09	1196.00
616.21	1099.50
616.34	1087.50
616.46	1095.75
616.58	1131.50
616.71	1127.00
616.83	1143.00
616.95	1137.25
617.08	1121.50
617.20	1099.00
617.33	1059.00
617.45	1096.75
617.57	1129.00
617.70	1116.75
617.82	1089.25
617.95	1110.25
618.07	1162.25
618.19	1121.00
618.32	1111.25
618.44	1094.50
618.56	1069.00
618.69	1043.50
618.81	1054.00
618.94	1132.75
619.06	1088.00
619.18	1090.50
619.31	1071.00
619.43	1075.75
619.55	1124.75
619.68	1118.00
619.80	1066.50
619.92	1114.50
620.05	1243.50
620.17	1169.00
620.30	1103.00
620.42	1130.25
620.54	1148.00
620.67	1085.50
620.79	1112.75
620.91	1132.75
621.04	1173.75
621.16	1093.00
621.29	1087.75
621.41	1060.25
621.53	1105.25
621.66	1101.75
621.78	1076.00
621.90	1154.75
622.03	1209.25
622.15	1121.25
622.27	1117.00
622.40	1122.50
622.52	1087.25
622.64	1093.00
622.77	1072.00
622.89	1126.00
623.02	1152.00
623.14	1128.25
623.26	1141.00
623.39	1118.75
623.51	1163.00
623.63	1092.00
623.76	1071.25
623.88	1166.50
624.00	1115.75
624.13	1076.25
624.25	1080.50
624.37	1073.00
624.50	1150.00
624.62	1133.75
624.75	1074.50
624.87	1066.00
624.99	1135.25
625.12	1094.00
625.24	1109.25
625.36	1203.75
625.49	1154.25
625.61	1118.25
625.73	1120.00
625.86	1162.00
625.98	1120.25
626.10	1089.50
626.23	1074.50
626.35	1126.00
626.47	1102.00
626.60	1088.00
626.72	1088.25
626.84	1096.50
626.97	1128.25
627.09	1106.75
627.21	1106.25
627.34	1220.50
627.46	1220.00
627.58	1108.25
627.71	1132.50
627.83	1152.50
627.95	1085.50
628.08	1128.25
628.20	1121.75
628.32	1056.25
628.45	1036.50
628.57	1047.75
628.69	1078.75
628.82	1140.00
628.94	1185.25
629.06	1116.75
629.19	1106.75
629.31	1167.50
629.43	1094.25
629.56	1135.25
629.68	1114.50
629.80	1151.25
629.93	1081.50
630.05	1093.25
630.17	1066.50
630.30	1110.75
630.42	1084.50
630.54	1133.75
630.67	1118.00
630.79	1094.00
630.91	1229.00
631.04	1133.25
631.16	1134.25
631.28	1133.75
631.41	1090.00
631.53	1076.25
631.65	1128.75
631.78	1140.25
631.90	1123.50
632.02	1110.00
632.14	1042.75
632.27	1179.50
632.39	1130.50
632.51	1098.75
632.64	1168.75
632.76	1118.50
632.88	1103.50
633.01	1131.50
633.13	1120.00
633.25	1125.00
633.38	1224.00
633.50	1067.75
633.62	1070.00
633.75	1065.25
633.87	1048.75
633.99	1127.75
634.11	1069.25
634.24	1099.50
634.36	1110.75
634.48	1110.75
634.61	1099.50
634.73	1132.00
634.85	1105.25
634.98	1102.25
635.10	1108.25
635.22	1113.25
635.35	1243.50
635.47	1142.50
635.59	1114.50
635.71	1147.00
635.84	1170.00
635.96	1109.00
636.08	1158.50
636.21	1096.00
636.33	1129.00
636.45	1121.25
636.58	1103.50
636.70	1068.25
636.82	1148.75
636.94	1104.50
637.07	1085.25
637.19	1171.25
637.31	1149.00
637.44	1146.25
637.56	1071.25
637.68	1144.25
637.81	1133.75
637.93	1133.50
638.05	1086.25
638.17	1176.25
638.30	1238.00
638.42	1130.00
638.54	1095.00
638.67	1111.50
638.79	1122.00
638.91	1093.50
639.03	1111.50
639.16	1111.50
639.28	1128.00
639.40	1134.25
639.53	1103.50
639.65	1158.00
639.77	1122.00
639.89	1127.50
640.02	1130.75
640.14	1130.75
640.26	1085.25
640.39	1154.00
640.51	1107.75
640.63	1153.75
640.75	1166.50
640.88	1122.25
641.00	1098.25
641.12	1098.75
641.24	1205.50
641.37	1127.00
641.49	1092.50
641.61	1228.00
641.74	1105.00
641.86	1145.50
641.98	1089.50
642.10	1140.00
642.23	1156.25
642.35	1118.50
642.47	1133.50
642.60	1135.75
642.72	1164.00
642.84	1071.00
642.96	1083.25
643.09	1087.25
643.21	1091.50
643.33	1092.00
643.45	1092.25
643.58	1167.25
643.70	1215.00
643.82	1116.25
643.94	1118.00
644.07	1137.50
644.19	1144.50
644.31	1138.25
644.44	1134.50
644.56	1125.25
644.68	1093.25
644.80	1099.50
644.93	1085.75
645.05	1106.50
645.17	1145.25
645.29	1139.25
645.42	1151.25
645.54	1133.00
645.66	1147.00
645.78	1126.75
645.91	1118.25
646.03	1153.75
646.15	1204.50
646.27	1117.50
646.40	1145.00
646.52	1164.00
646.64	1180.25
646.76	1139.75
646.89	1085.75
647.01	1167.25
647.13	1150.25
647.25	1165.00
647.38	1121.50
647.50	1098.25
647.62	1162.25
647.74	1095.00
647.87	1111.25
647.99	1144.75
648.11	1158.50
648.23	1143.00
648.36	1102.25
648.48	1204.75
648.60	1144.50
648.72	1115.75
648.85	1107.25
648.97	1193.75
649.09	1157.50
649.21	1119.50
649.34	1148.00
649.46	1167.50
649.58	1162.50
649.70	1153.75
649.83	1119.50
649.95	1158.50
650.07	1170.00
650.19	1186.00
650.32	1147.75
650.44	1198.00
650.56	1166.25
650.68	1124.25
650.81	1129.00
650.93	1118.50
651.05	1199.00
651.17	1113.25
651.29	1157.50
651.42	1134.00
651.54	1176.50
651.66	1114.00
651.78	1118.75
651.91	1173.50
652.03	1262.75
652.15	1184.50
652.27	1125.00
652.40	1161.50
652.52	1138.75
652.64	1152.75
652.76	1130.50
652.88	1244.50
653.01	1145.25
653.13	1110.75
653.25	1086.25
653.37	1183.50
653.50	1192.50
653.62	1170.00
653.74	1101.00
653.86	1180.25
653.98	1181.00
654.11	1118.50
654.23	1145.50
654.35	1132.25
654.47	1266.00
654.60	1146.75
654.72	1149.50
654.84	1111.25
654.96	1197.25
655.08	1124.00
655.21	1157.75
655.33	1138.25
655.45	1197.25
655.57	1162.25
655.70	1159.00
655.82	1187.25
655.94	1225.25
656.06	1183.50
656.18	1113.00
656.31	1206.50
656.43	1184.50
656.55	1124.00
656.67	1136.50
656.79	1162.00
656.92	1205.50
657.04	1172.75
657.16	1142.00
657.28	1266.25
657.40	1167.25
657.53	1181.50
657.65	1145.00
657.77	1214.75
657.89	1217.25
658.01	1147.75
658.14	1117.75
658.26	1180.25
658.38	1148.25
658.50	1115.50
658.62	1128.75
658.75	1284.00
658.87	1208.75
658.99	1179.50
659.11	1119.25
659.23	1203.75
659.36	1266.75
659.48	1202.75
659.60	1186.00
659.72	1171.75
659.84	1177.75
659.97	1198.00
660.09	1197.25
660.21	1277.50
660.33	1209.75
660.45	1122.00
660.58	1104.50
660.70	1140.50
660.82	1144.25
660.94	1121.50
661.06	1163.25
661.19	1228.00
661.31	1209.00
661.43	1180.75
661.55	1160.25
661.67	1209.75
661.80	1235.25
661.92	1172.50
662.04	1177.25
662.16	1181.25
662.28	1237.75
662.40	1172.50
662.53	1166.00
662.65	1191.75
662.77	1141.50
662.89	1173.75
663.01	1143.00
663.14	1165.75
663.26	1188.00
663.38	1174.00
663.50	1135.50
663.62	1156.50
663.74	1174.25
663.87	1139.25
663.99	1177.50
664.11	1210.00
664.23	1295.25
664.35	1162.75
664.48	1155.25
664.60	1161.75
664.72	1150.00
664.84	1127.25
664.96	1170.50
665.08	1228.25
665.21	1192.75
665.33	1209.00
665.45	1122.75
665.57	1176.25
665.69	1264.25
665.81	1173.75
665.94	1134.50
666.06	1140.00
666.18	1195.75
666.30	1168.00
666.42	1154.00
666.54	1197.75
666.67	1218.25
666.79	1142.00
666.91	1205.25
667.03	1164.25
667.15	1141.50
667.27	1169.25
667.40	1137.75
667.52	1161.25
667.64	1221.75
667.76	1160.75
667.88	1140.25
668.00	1219.00
668.13	1227.25
668.25	1157.75
668.37	1152.75
668.49	1174.75
668.61	1232.00
668.73	1179.00
668.85	1186.50
668.98	1204.50
669.10	1190.00
669.22	1162.50
669.34	1181.00
669.46	1222.00
669.58	1160.00
669.71	1193.75
669.83	1173.50
669.95	1159.75
670.07	1187.00
670.19	1155.50
670.31	1164.00
670.43	1170.50
670.56	1195.25
670.68	1230.75
670.80	1205.75
670.92	1200.50
671.04	1243.00
671.16	1168.00
671.28	1161.75
671.41	1171.25
671.53	1220.75
671.65	1164.75
671.77	1170.75
671.89	1327.00
672.01	1267.50
672.13	1226.25
672.26	1154.25
672.38	1198.25
672.50	1161.25
672.62	1180.75
672.74	1182.50
672.86	1182.75
672.98	1211.25
673.11	1188.50
673.23	1193.75
673.35	1252.25
673.47	1186.00
673.59	1183.25
673.71	1152.75
673.83	1208.25
673.96	1297.75
674.08	1198.00
674.20	1153.50
674.32	1188.50
674.44	1196.50
674.56	1210.50
674.68	1209.75
674.80	1226.25
674.93	1207.75
675.05	1174.25
675.17	1186.00
675.29	1241.25
675.41	1250.75
675.53	1195.75
675.65	1172.50
675.77	1190.75
675.90	1242.50
676.02	1161.75
676.14	1164.25
676.26	1267.25
676.38	1297.25
676.50	1196.75
676.62	1220.75
676.74	1171.50
676.87	1183.25
676.99	1206.00
677.11	1239.25
677.23	1221.00
677.35	1222.25
677.47	1154.25
677.59	1174.75
677.71	1226.50
677.83	1228.25
677.96	1206.25
678.08	1201.75
678.20	1209.75
678.32	1175.75
678.44	1197.75
678.56	1190.75
678.68	1333.75
678.80	1251.75
678.93	1193.75
679.05	1206.50
679.17	1206.75
679.29	1262.00
679.41	1205.75
679.53	1177.25
679.65	1180.50
679.77	1220.75
679.89	1198.00
680.01	1234.00
680.14	1234.00
680.26	1149.50
680.38	1191.00
680.50	1233.75
680.62	1295.50
680.74	1221.25
680.86	1190.25
680.98	1211.75
681.10	1229.00
681.22	1304.75
681.35	1191.00
681.47	1195.00
681.59	1177.75
681.71	1286.50
681.83	1213.25
681.95	1186.50
682.07	1258.75
682.19	1226.25
682.31	1195.75
682.43	1159.00
682.56	1243.25
682.68	1163.50
682.80	1188.00
682.92	1226.50
683.04	1211.00
683.16	1200.25
683.28	1182.75
683.40	1247.25
683.52	1204.50
683.64	1232.00
683.76	1177.50
683.89	1192.50
684.01	1213.75
684.13	1272.50
684.25	1219.75
684.37	1219.50
684.49	1247.25
684.61	1198.00
684.73	1220.50
684.85	1200.25
684.97	1177.00
685.09	1275.50
685.21	1182.25
685.34	1208.25
685.46	1347.25
685.58	1235.75
685.70	1223.25
685.82	1261.00
685.94	1191.50
686.06	1185.00
686.18	1180.00
686.30	1198.75
686.42	1177.50
686.54	1249.75
686.66	1190.50
686.79	1290.00
686.91	1252.75
687.03	1326.25
687.15	1246.00
687.27	1215.00
687.39	1214.50
687.51	1306.00
687.63	1225.75
687.75	1253.50
687.87	1249.00
687.99	1288.25
688.11	1181.50
688.23	1236.00
688.35	1275.75
688.48	1244.75
688.60	1189.50
688.72	1216.00
688.84	1231.75
688.96	1271.50
689.08	1220.50
689.20	1218.25
689.32	1341.75
689.44	1239.25
689.56	1177.25
689.68	1196.00
689.80	1219.50
689.92	1193.25
690.04	1200.00
690.16	1252.00
690.28	1254.25
690.41	1248.00
690.53	1191.75
690.65	1253.75
690.77	1280.00
690.89	1288.75
691.01	1237.25
691.13	1203.50
691.25	1187.50
691.37	1222.25
691.49	1174.00
691.61	1181.50
691.73	1294.00
691.85	1225.50
691.97	1215.00
692.09	1199.25
692.21	1275.00
692.33	1292.00
692.45	1254.25
692.57	1203.25
692.70	1237.00
692.82	1237.00
692.94	1179.00
693.06	1206.00
693.18	1243.50
693.30	1220.75
693.42	1204.00
693.54	1234.50
693.66	1257.00
693.78	1251.75
693.90	1206.00
694.02	1242.75
694.14	1257.25
694.26	1228.75
694.38	1248.50
694.50	1246.50
694.62	1253.75
694.74	1190.50
694.86	1209.25
694.98	1234.75
695.10	1248.50
695.22	1277.75
695.34	1209.25
695.46	1198.25
695.58	1214.00
695.71	1254.50
695.83	1206.00
695.95	1216.75
696.07	1297.75
696.19	1203.25
696.31	1222.25
696.43	1202.75
696.55	1317.75
696.67	1260.25
696.79	1218.00
696.91	1232.00
697.03	1216.00
697.15	1318.75
697.27	1243.00
697.39	1207.50
697.51	1271.25
697.63	1215.50
697.75	1210.50
697.87	1237.50
697.99	1193.75
698.11	1164.75
698.23	1194.00
698.35	1215.00
698.47	1221.25
698.59	1256.25
698.71	1223.50
698.83	1287.00
698.95	1206.25
699.07	1238.00
699.19	1218.75
699.31	1241.50
699.43	1212.00
699.55	1268.50
699.67	1230.25
699.79	1233.75
699.91	1213.75
700.03	1242.25
700.15	1242.25
700.27	1205.50
700.39	1238.50
700.51	1201.25
700.63	1233.75
700.75	1233.25
700.87	1264.25
700.99	1233.75
701.11	1262.50
701.24	1236.75
701.36	1280.50
701.48	1288.25
701.60	1278.75
701.72	1214.25
701.84	1317.00
701.96	1273.50
702.08	1240.50
702.20	1331.50
702.32	1281.50
702.44	1275.50
702.56	1231.25
702.68	1232.00
702.80	1263.00
702.92	1342.75
703.04	1322.25
703.16	1260.00
703.28	1261.25
703.40	1236.50
703.52	1264.50
703.64	1266.00
703.76	1267.25
703.88	1233.00
704.00	1227.25
704.12	1259.00
704.24	1307.50
704.36	1262.50
704.48	1260.00
704.60	1212.50
704.72	1246.75
704.84	1242.25
704.96	1286.50
705.07	1253.00
705.19	1233.50
705.31	1248.25
705.43	1289.25
705.55	1240.25
705.67	1272.50
705.79	1269.50
705.91	1201.00
706.03	1255.25
706.15	1263.25
706.27	1258.75
706.39	1243.00
706.51	1238.75
706.63	1245.25
706.75	1293.50
706.87	1273.50
706.99	1321.25
707.11	1274.75
707.23	1264.00
707.35	1275.00
707.47	1257.75
707.59	1288.50
707.71	1307.00
707.83	1270.75
707.95	1309.00
708.07	1268.25
708.19	1386.75
708.31	1270.50
708.43	1226.75
708.55	1278.75
708.67	1325.75
708.79	1280.50
708.91	1298.25
709.03	1294.25
709.15	1296.00
709.27	1235.50
709.39	1274.75
709.51	1251.75
709.63	1290.50
709.75	1303.50
709.87	1221.00
709.99	1306.00
710.11	1246.75
710.23	1245.25
710.35	1228.50
710.47	1373.25
710.58	1321.25
710.70	1329.25
710.82	1334.00
710.94	1287.25
711.06	1268.75
711.18	1275.25
711.30	1247.75
711.42	1336.00
711.54	1267.75
711.66	1297.75
711.78	1240.50
711.90	1294.25
712.02	1347.50
712.14	1248.00
712.26	1234.75
712.38	1329.75
712.50	1342.00
712.62	1271.00
712.74	1250.50
712.86	1256.25
712.98	1316.75
713.10	1247.50
713.22	1238.00
713.34	1275.50
713.45	1257.75
713.57	1285.75
713.69	1229.00
713.81	1262.50
713.93	1279.50
714.05	1275.75
714.17	1235.75
714.29	1341.50
714.41	1327.50
714.53	1274.25
714.65	1297.75
714.77	1269.25
714.89	1243.50
715.01	1335.25
715.13	1246.25
715.25	1296.50
715.37	1255.00
715.49	1237.50
715.61	1301.75
715.72	1313.75
715.84	1328.00
715.96	1264.50
716.08	1253.50
716.20	1335.50
716.32	1330.75
716.44	1274.50
716.56	1277.00
716.68	1290.00
716.80	1368.50
716.92	1332.00
717.04	1292.50
717.16	1316.00
717.28	1291.75
717.40	1275.00
717.52	1294.50
717.63	1273.75
717.75	1287.50
717.87	1275.00
717.99	1298.50
718.11	1271.50
718.23	1344.50
718.35	1301.25
718.47	1277.50
718.59	1227.75
718.71	1286.25
718.83	1269.25
718.95	1331.00
719.07	1257.75
719.19	1286.00
719.30	1272.50
719.42	1295.75
719.54	1281.75
719.66	1300.50
719.78	1292.00
719.90	1221.00
720.02	1284.00
720.14	1307.50
720.26	1330.50
720.38	1330.25
720.50	1265.50
720.62	1213.50
720.74	1292.00
720.85	1281.00
720.97	1345.50
721.09	1387.50
721.21	1293.00
721.33	1352.75
721.45	1291.75
721.57	1307.25
721.69	1268.50
721.81	1241.00
721.93	1366.75
722.05	1306.00
722.16	1263.25
722.28	1230.00
722.40	1260.50
722.52	1339.25
722.64	1360.50
722.76	1255.75
722.88	1318.50
723.00	1325.25
723.12	1275.00
723.24	1305.25
723.36	1243.50
723.47	1331.75
723.59	1302.25
723.71	1287.50
723.83	1303.75
723.95	1287.00
724.07	1301.25
724.19	1328.50
724.31	1375.25
724.43	1268.75
724.55	1224.50
724.66	1259.25
724.78	1436.25
724.90	1267.75
725.02	1270.25
725.14	1283.75
725.26	1304.50
725.38	1236.00
725.50	1300.50
725.62	1319.75
725.74	1290.75
725.85	1288.00
725.97	1301.25
726.09	1356.00
726.21	1638.00
726.33	1349.00
726.45	1305.00
726.57	1277.75
726.69	1309.25
726.81	1301.00
726.92	1293.75
727.04	1306.75
727.16	1329.00
727.28	1295.25
727.40	1294.50
727.52	1308.00
727.64	1431.75
727.76	1382.75
727.88	1341.25
727.99	1272.75
728.11	1281.75
728.23	1298.25
728.35	1293.00
728.47	1291.50
728.59	1297.50
728.71	1320.00
728.83	1321.50
728.94	1343.00
729.06	1401.00
729.18	1372.75
729.30	1330.25
729.42	1311.50
729.54	1395.75
729.66	1406.50
729.78	1304.50
729.90	1325.00
730.01	1288.50
730.13	1230.50
730.25	1301.50
730.37	1288.75
730.49	1336.00
730.61	1324.00
730.73	1320.50
730.84	1359.00
730.96	1341.75
731.08	1341.00
731.20	1316.75
731.32	1327.75
731.44	1468.75
731.56	1305.00
731.68	1279.50
731.79	1322.25
731.91	1300.00
732.03	1294.75
732.15	1307.75
732.27	1284.50
732.39	1299.25
732.51	1354.50
732.62	1294.75
732.74	1298.00
732.86	1375.00
732.98	1337.25
733.10	1317.50
733.22	1327.25
733.34	1349.75
733.45	1261.00
733.57	1312.25
733.69	1281.25
733.81	1315.50
733.93	1329.25
734.05	1240.25
734.17	1302.25
734.28	1311.25
734.40	1309.25
734.52	1294.00
734.64	1304.50
734.76	1392.50
734.88	1324.00
735.00	1277.25
735.11	1307.50
735.23	1372.50
735.35	1310.25
735.47	1273.50
735.59	1350.00
735.71	1312.75
735.83	1323.25
735.94	1339.50
736.06	1324.25
736.18	1371.25
736.30	1364.50
736.42	1345.75
736.54	1346.75
736.65	1360.00
736.77	1458.00
736.89	1366.75
737.01	1334.75
737.13	1428.75
737.25	1254.50
737.36	1277.75
737.48	1313.50
737.60	1321.50
737.72	1297.00
737.84	1318.75
737.96	1377.50
738.08	1318.75
738.19	1417.75
738.31	1318.75
738.43	1341.00
738.55	1338.50
738.67	1329.50
738.79	1292.75
738.90	1326.75
739.02	1343.75
739.14	1312.75
739.26	1325.25
739.38	1325.00
739.50	1363.00
739.61	1331.75
739.73	1329.75
739.85	1333.25
739.97	1349.00
740.09	1396.75
740.20	1273.25
740.32	1335.75
740.44	1356.75
740.56	1294.25
740.68	1316.25
740.80	1328.00
740.91	1319.75
741.03	1372.50
741.15	1345.00
741.27	1310.75
741.39	1375.25
741.51	1345.50
741.62	1366.50
741.74	1329.50
741.86	1345.50
741.98	1304.50
742.10	1342.50
742.21	1351.50
742.33	1335.25
742.45	1308.25
742.57	1390.00
742.69	1318.50
742.80	1374.00
742.92	1326.50
743.04	1321.25
743.16	1326.75
743.28	1390.75
743.40	1295.75
743.51	1302.50
743.63	1309.00
743.75	1331.25
743.87	1329.25
743.99	1353.00
744.10	1332.25
744.22	1325.50
744.34	1314.25
744.46	1340.00
744.58	1342.50
744.69	1277.75
744.81	1343.50
744.93	1284.00
745.05	1285.75
745.17	1409.75
745.28	1405.50
745.40	1363.50
745.52	1340.25
745.64	1339.25
745.76	1372.00
745.87	1320.75
745.99	1303.00
746.11	1344.00
746.23	1292.00
746.35	1335.50
746.46	1317.00
746.58	1447.75
746.70	1352.00
746.82	1340.25
746.94	1332.25
747.05	1296.75
747.17	1282.00
747.29	1281.50
747.41	1316.25
747.53	1457.25
747.64	1318.75
747.76	1376.75
747.88	1376.50
748.00	1378.75
748.12	1337.25
748.23	1316.50
748.35	1340.00
748.47	1382.25
748.59	1370.50
748.70	1321.50
748.82	1296.25
748.94	1289.75
749.06	1305.75
749.18	1325.75
749.29	1297.50
749.41	1357.50
749.53	1331.00
749.65	1315.75
749.76	1362.25
749.88	1322.75
750.00	1345.75
750.12	1366.75
750.24	1349.00
750.35	1333.25
750.47	1288.25
750.59	1348.50
750.71	1316.00
750.82	1364.25
750.94	1308.50
751.06	1315.25
751.18	1315.75
751.30	1364.50
751.41	1354.25
751.53	1354.25
751.65	1301.25
751.77	1311.25
751.88	1339.75
752.00	1375.50
752.12	1291.50
752.24	1373.75
752.35	1353.25
752.47	1361.75
752.59	1372.50
752.71	1419.25
752.83	1306.00
752.94	1384.75
753.06	1295.00
753.18	1333.50
753.30	1302.25
753.41	1259.25
753.53	1300.50
753.65	1302.50
753.77	1365.75
753.88	1294.00
754.00	1337.00
754.12	1342.75
754.24	1402.75
754.35	1301.25
754.47	1275.50
754.59	1349.75
754.71	1352.00
754.82	1325.50
754.94	1303.50
755.06	1380.00
755.18	1344.25
755.29	1344.50
755.41	1320.25
755.53	1357.00
755.65	1294.25
755.76	1334.25
755.88	1329.75
756.00	1379.00
756.12	1302.00
756.23	1217.25
756.35	1308.25
756.47	1353.75
756.59	1295.75
756.70	1300.25
756.82	1309.50
756.94	1302.50
757.06	1339.00
757.17	1334.75
757.29	1313.00
757.41	1273.00
757.53	1338.25
757.64	1314.25
757.76	1319.75
757.88	1341.50
758.00	1338.75
758.11	1300.00
758.23	1280.75
758.35	1336.75
758.47	1277.00
758.58	1329.75
758.70	1268.50
758.82	1291.50
758.94	1270.75
759.05	1321.75
759.17	1268.00
759.29	1318.50
759.40	1380.00
759.52	1302.50
759.64	1299.75
759.76	1317.50
759.87	1334.25
759.99	1334.75
760.11	1295.00
760.23	1321.25
760.34	1351.50
760.46	1330.25
760.58	1294.25
760.70	1314.25
760.81	1369.25
760.93	1340.50
761.05	1350.25
761.16	1325.50
761.28	1297.25
761.40	1295.00
761.52	1273.00
761.63	1355.75
761.75	1339.00
761.87	1299.75
761.98	1266.25
762.10	1333.00
762.22	1310.25
762.34	1357.25
762.45	1286.50
762.57	1347.25
762.69	1430.25
762.81	1300.75
762.92	1335.50
763.04	1259.75
763.16	1332.25
763.27	1338.50
763.39	1290.00
763.51	1334.75
763.63	1323.75
763.74	1287.50
763.86	1242.50
763.98	1284.50
764.09	1301.25
764.21	1321.00
764.33	1265.00
764.44	1280.75
764.56	1317.50
764.68	1276.75
764.80	1309.00
764.91	1245.75
765.03	1359.50
765.15	1291.50
765.26	1291.75
765.38	1272.00
765.50	1339.75
765.62	1295.25
765.73	1288.75
765.85	1310.75
765.97	1243.25
766.08	1303.25
766.20	1319.75
766.32	1312.00
766.43	1334.00
766.55	1332.00
766.67	1288.75
766.79	1299.50
766.90	1251.75
767.02	1223.00
767.14	1253.25
767.25	1257.50
767.37	1383.25
767.49	1322.50
767.60	1284.00
767.72	1341.50
767.84	1322.00
767.95	1266.25
768.07	1272.25
768.19	1314.25
768.31	1327.50
768.42	1311.25
768.54	1293.50
768.66	1298.00
768.77	1324.50
768.89	1299.50
769.01	1271.00
769.12	1310.50
769.24	1314.50
769.36	1267.50
769.47	1255.50
769.59	1250.50
769.71	1300.75
769.82	1272.75
769.94	1264.00
770.06	1237.00
770.17	1316.25
770.29	1287.00
770.41	1312.00
770.53	1314.75
770.64	1259.75
770.76	1288.75
770.88	1306.75
770.99	1319.75
771.11	1253.25
771.23	1296.25
771.34	1282.25
771.46	1368.50
771.58	1333.50
771.69	1311.25
771.81	1277.25
771.93	1327.75
772.04	1250.75
772.16	1319.75
772.28	1284.50
772.39	1324.50
772.51	1288.25
772.63	1303.75
772.74	1273.50
772.86	1287.00
772.98	1393.25
773.09	1250.00
773.21	1249.50
773.33	1288.75
773.44	1295.75
773.56	1274.00
773.68	1277.25
773.79	1324.50
773.91	1274.75
774.03	1280.25
774.14	1271.50
774.26	1317.75
774.38	1236.00
774.49	1235.00
774.61	1261.50
774.73	1280.25
774.84	1251.50
774.96	1243.75
775.08	1268.75
775.19	1296.25
775.31	1312.00
775.43	1275.25
775.54	1250.25
775.66	1227.25
775.77	1312.75
775.89	1229.50
776.01	1302.00
776.12	1309.25
776.24	1280.00
776.36	1224.75
776.47	1239.25
776.59	1273.75
776.71	1315.75
776.82	1209.50
776.94	1224.00
777.06	1240.00
777.17	1327.25
777.29	1224.50
777.41	1240.00
777.52	1289.50
777.64	1262.00
777.75	1285.00
777.87	1206.25
777.99	1244.00
778.10	1300.00
778.22	1243.25
778.34	1262.25
778.45	1245.75
778.57	1303.50
778.69	1291.75
778.80	1278.00
778.92	1370.25
779.04	1277.50
779.15	1256.75
779.27	1293.50
779.38	1286.00
779.50	1315.00
779.62	1208.25
779.73	1249.25
779.85	1201.25
779.97	1356.00
780.08	1248.25
780.20	1264.25
780.31	1285.50
780.43	1287.75
780.55	1238.00
780.66	1258.25
780.78	1281.00
780.90	1370.50
781.01	1238.50
781.13	1247.75
781.25	1243.50
781.36	1300.50
781.48	1211.00
781.59	1248.75
781.71	1276.75
781.83	1275.50
781.94	1220.50
782.06	1217.50
782.18	1275.25
782.29	1225.00
782.41	1185.50
782.52	1281.25
782.64	1296.25
782.76	1258.00
782.87	1267.50
782.99	1235.75
783.10	1362.75
783.22	1387.50
783.34	1255.50
783.45	1262.25
783.57	1246.00
783.69	1217.00
783.80	1255.25
783.92	1274.25
784.03	1240.75
784.15	1224.25
784.27	1234.25
784.38	1213.50
784.50	1210.75
784.61	1246.25
784.73	1215.25
784.85	1226.75
784.96	1215.00
785.08	1288.50
785.19	1279.00
785.31	1223.00
785.43	1208.50
785.54	1191.25
785.66	1266.25
785.77	1234.00
785.89	1257.50
786.01	1184.00
786.12	1227.00
786.24	1240.25
786.35	1301.25
786.47	1249.75
786.59	1216.50
786.70	1193.50
786.82	1248.00
786.93	1242.50
787.05	1219.25
787.17	1234.00
787.28	1219.00
787.40	1252.75
787.51	1242.25
787.63	1254.75
787.75	1190.25
787.86	1228.75
787.98	1245.25
788.09	1215.25
788.21	1250.00
788.33	1270.00
788.44	1250.00
788.56	1206.00
788.67	1257.00
788.79	1202.00
788.91	1232.50
789.02	1200.75
789.14	1209.25
789.25	1309.00
789.37	1234.75
789.48	1205.00
789.60	1234.00
789.72	1197.50
789.83	1254.00
789.95	1231.50
790.06	1166.00
790.18	1187.25
790.30	1248.00
790.41	1223.25
790.53	1188.75
790.64	1181.25
790.76	1179.50
790.87	1193.50
790.99	1213.25
791.11	1227.00
791.22	1191.75
791.34	1215.25
791.45	1243.25
791.57	1237.00
791.68	1196.25
791.80	1182.00
791.92	1253.75
792.03	1209.00
792.15	1156.50
792.26	1188.25
792.38	1163.25
792.49	1224.50
792.61	1198.50
792.73	1208.00
792.84	1202.00
792.96	1305.00
793.07	1193.50
793.19	1990.75
793.30	1278.75
793.42	1242.00
793.54	1148.25
793.65	1157.00
793.77	1330.00
793.88	1185.25
794.00	1146.50
794.11	1199.50
794.23	1134.75
794.34	1197.00
794.46	1134.00
794.58	1140.00
794.69	1275.75
794.81	1273.25
794.92	1162.25
795.04	1165.75
795.15	1277.75
795.27	1231.25
795.39	1196.50
795.50	1157.50
795.62	1159.00
795.73	1173.00
795.85	1156.75
795.96	1204.75
796.08	1237.25
796.19	1167.25
796.31	1169.25
796.42	1139.00
796.54	1165.00
796.66	1225.75
796.77	1135.75
796.89	1128.00
797.00	1230.50
797.12	1107.75
797.23	1176.25
797.35	1194.25
797.46	1231.75
797.58	1238.25
797.69	1194.50
797.81	1176.50
797.93	1177.75
798.04	1165.25
798.16	1163.00
798.27	1200.75
798.39	1147.75
798.50	1131.25
798.62	1130.50
798.73	1140.00
798.85	1263.25
798.96	1186.50
799.08	1200.00
799.19	1204.75
799.31	1181.50
799.43	1176.00
799.54	1162.50
799.66	1176.75
799.77	1208.00
799.89	1140.75
800.00	1111.75
800.12	1175.25
800.23	1222.25
800.35	1247.25
800.46	1107.75
800.58	1104.25
800.69	1162.50
800.81	1152.25
800.92	1130.25
801.04	1169.00
801.16	1107.25
801.27	1121.00
801.39	1128.00
801.50	1137.00
801.62	1153.50
801.73	1201.75
801.85	1191.50
801.96	1120.50
802.08	1217.00
802.19	1201.25
802.31	1140.75
802.42	1167.75
802.54	1240.25
802.65	1214.50
802.77	1125.25
802.88	1180.75
803.00	1111.25
803.11	1264.50
803.23	1166.50
803.34	1163.25
803.46	1173.50
803.57	1118.25
803.69	1189.75
803.80	1117.00
803.92	1205.75
804.03	1155.00
804.15	1172.75
804.26	1190.00
804.38	1194.00
804.50	1128.00
804.61	1170.25
804.73	1166.00
804.84	1158.00
804.96	1079.25
805.07	1146.25
805.19	1115.75
805.30	1161.00
805.42	1194.00
805.53	1141.00
805.65	1117.75
805.76	1103.50
805.88	1117.50
805.99	1141.25
806.11	1164.50
806.22	1114.75
806.34	1122.25
806.45	1131.50
806.57	1121.25
806.68	1165.00
806.80	1058.25
806.91	1089.25
807.03	1089.50
807.14	1052.75
807.26	1063.00
807.37	1068.25
807.49	1128.25
807.60	1085.50
807.72	1188.00
807.83	1200.25
807.95	1123.75
808.06	1122.50
808.17	1121.00
808.29	1139.75
808.40	1068.50
808.52	1104.50
808.63	1100.75
808.75	1110.25
808.86	1099.50
808.98	1109.25
809.09	1069.25
809.21	1111.50
809.32	1067.00
809.44	1115.75
809.55	1045.00
809.67	1099.75
809.78	1054.25
809.90	1107.75
810.01	1144.25
810.13	1058.25
810.24	1104.75
810.36	1028.50
810.47	1081.50
810.59	1076.75
810.70	1082.50
810.82	1118.00
810.93	1035.75
811.05	1043.75
811.16	1041.75
811.27	1041.50
811.39	1054.50
811.50	1090.50
811.62	1003.25
811.73	979.50
811.85	1067.00
811.96	1047.75
812.08	1076.00
812.19	1038.25
812.31	1066.00
812.42	1031.75
812.54	1018.25
812.65	1082.75
812.77	1084.75
812.88	1065.75
813.00	1067.50
813.11	1062.00
813.22	999.25
813.34	1007.00
813.45	1032.50
813.57	1100.75
813.68	1108.50
813.80	1022.00
813.91	983.75
814.03	1007.50
814.14	1105.75
814.26	996.75
814.37	1014.50
814.49	1006.00
814.60	989.50
814.71	981.50
814.83	999.00
814.94	955.75
815.06	986.50
815.17	997.00
815.29	989.25
815.40	961.00
815.52	1080.50
815.63	988.00
815.75	969.75
815.86	995.75
815.97	938.25
816.09	983.75
816.20	997.00
816.32	999.25
816.43	923.00
816.55	987.75
816.66	955.50
816.78	1067.75
816.89	974.50
817.00	974.75
817.12	938.00
817.23	930.00
817.35	1012.25
817.46	973.50
817.58	941.25
817.69	1058.50
817.81	959.25
817.92	994.50
818.03	969.00
818.15	964.75
818.26	923.25
818.38	916.00
818.49	945.75
818.61	952.25
818.72	905.00
818.83	1568.75
818.95	1020.50
819.06	906.75
819.18	921.00
819.29	947.25
819.41	929.75
819.52	957.00
819.64	933.50
819.75	907.50
819.86	885.50
819.98	905.00
820.09	947.00
820.21	924.00
820.32	895.25
820.44	947.00
820.55	994.00
820.66	883.00
820.78	944.50
820.89	910.50
821.01	934.00
821.12	908.00
821.23	920.50
821.35	894.50
821.46	956.50
821.58	908.25
821.69	886.75
821.81	879.25
821.92	961.25
822.03	893.00
822.15	909.75
822.26	858.50
822.38	867.50
822.49	908.75
822.61	899.00
822.72	901.00
822.83	947.25
822.95	890.75
823.06	898.00
823.18	934.75
823.29	946.50
823.40	902.75
823.52	869.75
823.63	831.50
823.75	967.50
823.86	877.75
823.97	835.50
824.09	913.00
824.20	841.25
824.32	887.50
824.43	866.25
824.55	909.75
824.66	959.25
824.77	865.50
824.89	886.25
825.00	927.00
825.12	880.00
825.23	893.50
825.34	821.75
825.46	822.50
825.57	889.25
825.69	838.75
825.80	782.25
825.91	823.25
826.03	811.25
826.14	869.25
826.26	813.00
826.37	851.25
826.48	835.75
826.60	844.75
826.71	814.25
826.83	852.00
826.94	864.50
827.05	887.50
827.17	872.50
827.28	834.75
827.39	829.00
827.51	800.75
827.62	833.50
827.74	837.00
827.85	827.00
827.96	808.50
828.08	830.00
828.19	932.50
828.31	826.50
828.42	770.50
828.53	849.50
828.65	880.75
828.76	886.75
828.87	852.50
828.99	800.25
