Wavelength (nm)	Intensity
377.35	814.50
377.48	608.50
377.62	611.00
377.75	622.00
377.88	847.00
378.02	827.50
378.15	827.00
378.28	797.00
378.41	876.50
378.55	853.00
378.68	814.50
378.81	799.50
378.95	829.00
379.08	816.50
379.21	789.50
379.35	853.50
379.48	855.50
379.61	925.00
379.74	827.00
379.88	800.50
380.01	886.00
380.14	951.50
380.28	881.50
380.41	800.50
380.54	841.50
380.68	866.50
380.81	768.50
380.94	862.50
381.07	915.00
381.21	911.50
381.34	824.00
381.47	771.00
381.61	988.50
381.74	838.00
381.87	796.50
382.00	840.50
382.14	931.00
382.27	883.50
382.40	813.00
382.54	903.50
382.67	906.00
382.80	810.50
382.93	802.00
383.07	821.00
383.20	834.50
383.33	872.00
383.47	802.00
383.60	793.00
383.73	983.50
383.86	869.00
384.00	816.50
384.13	814.50
384.26	870.00
384.40	889.50
384.53	834.00
384.66	888.50
384.79	847.00
384.93	814.50
385.06	822.00
385.19	851.50
385.33	965.50
385.46	863.50
385.59	810.00
385.72	850.50
385.86	782.50
385.99	815.00
386.12	819.50
386.25	798.50
386.39	895.50
386.52	902.50
386.65	822.50
386.79	814.00
386.92	820.50
387.05	913.00
387.18	782.50
387.32	793.50
387.45	874.00
387.58	850.00
387.71	826.50
387.85	810.00
387.98	856.50
388.11	874.50
388.25	844.00
388.38	833.50
388.51	877.50
388.64	870.50
388.78	806.00
388.91	786.50
389.04	842.00
389.17	955.00
389.31	852.50
389.44	856.00
389.57	896.00
389.70	872.00
389.84	814.00
389.97	809.00
390.10	814.00
390.24	869.50
390.37	819.00
390.50	805.00
390.63	905.50
390.77	854.50
390.90	838.50
391.03	823.50
391.16	791.00
391.30	826.50
391.43	805.00
391.56	810.00
391.69	806.50
391.83	883.00
391.96	840.00
392.09	809.50
392.22	945.50
392.36	851.00
392.49	801.00
392.62	821.00
392.75	865.50
392.89	897.50
393.02	794.50
393.15	806.50
393.28	799.00
393.42	922.00
393.55	781.50
393.68	823.00
393.81	765.50
393.95	817.50
394.08	803.50
394.21	809.50
394.34	883.50
394.48	881.00
394.61	864.50
394.74	842.00
394.87	891.00
395.01	857.50
395.14	870.00
395.27	812.50
395.40	939.00
395.54	945.00
395.67	837.00
395.80	820.00
395.93	875.50
396.07	822.00
396.20	810.50
396.33	758.50
396.46	826.00
396.59	825.50
396.73	819.00
396.86	789.50
396.99	895.50
397.12	854.00
397.26	853.50
397.39	828.00
397.52	1150.50
397.65	951.50
397.79	834.50
397.92	820.50
398.05	888.00
398.18	832.50
398.32	833.00
398.45	864.50
398.58	848.00
398.71	860.50
398.84	798.00
398.98	822.00
399.11	877.00
399.24	861.50
399.37	820.50
399.51	792.00
399.64	834.50
399.77	849.50
399.90	823.50
400.03	825.50
400.17	787.50
400.30	901.50
400.43	865.50
400.56	845.00
400.70	852.50
400.83	821.00
400.96	793.50
401.09	841.00
401.23	851.00
401.36	921.50
401.49	818.00
401.62	855.50
401.75	834.00
401.89	793.00
402.02	809.50
402.15	829.00
402.28	854.00
402.41	854.00
402.55	802.50
402.68	823.50
402.81	907.50
402.94	883.50
403.08	814.00
403.21	794.00
403.34	877.50
403.47	881.00
403.60	830.50
403.74	861.00
403.87	880.50
404.00	817.50
404.13	805.00
404.26	789.00
404.40	805.50
404.53	860.50
404.66	819.00
404.79	793.00
404.93	870.00
405.06	838.00
405.19	779.00
405.32	841.00
405.45	861.00
405.59	875.50
405.72	838.00
405.85	804.00
405.98	1009.00
406.11	803.50
406.25	796.50
406.38	824.00
406.51	860.50
406.64	833.50
406.77	792.50
406.91	784.50
407.04	848.50
407.17	815.00
407.30	837.00
407.43	836.00
407.57	914.50
407.70	905.00
407.83	805.00
407.96	835.00
408.09	800.50
408.23	925.00
408.36	831.50
408.49	820.50
408.62	964.00
408.75	853.50
408.89	805.00
409.02	848.00
409.15	848.00
409.28	919.50
409.41	857.00
409.55	813.50
409.68	961.50
409.81	858.00
409.94	809.50
410.07	834.50
410.20	847.00
410.34	831.00
410.47	819.50
410.60	835.00
410.73	872.50
410.86	816.50
411.00	834.00
411.13	799.50
411.26	847.00
411.39	857.50
411.52	842.00
411.66	820.00
411.79	825.50
411.92	801.00
412.05	819.00
412.18	814.50
412.31	848.00
412.45	864.00
412.58	864.00
412.71	784.50
412.84	851.50
412.97	920.00
413.11	844.50
413.24	849.00
413.37	882.00
413.50	945.50
413.63	848.50
413.76	816.50
413.90	882.50
414.03	832.00
414.16	812.50
414.29	849.00
414.42	847.00
414.56	953.50
414.69	816.50
414.82	816.50
414.95	840.50
415.08	863.00
415.21	831.50
415.35	831.00
415.48	763.00
415.61	887.50
415.74	896.00
415.87	787.00
416.00	853.50
416.14	962.50
416.27	844.50
416.40	812.00
416.53	829.00
416.66	862.00
416.79	833.50
416.93	802.00
417.06	905.50
417.19	847.50
417.32	822.50
417.45	814.50
417.58	791.50
417.72	887.00
417.85	811.50
417.98	836.00
418.11	884.00
418.24	823.50
418.37	815.50
418.51	826.50
418.64	831.50
418.77	910.00
418.90	855.50
419.03	797.50
419.16	859.50
419.29	880.00
419.43	814.50
419.56	796.50
419.69	958.50
419.82	900.00
419.95	840.00
420.08	866.00
420.22	906.50
420.35	975.00
420.48	881.00
420.61	827.50
420.74	782.50
420.87	880.00
421.00	791.00
421.14	815.00
421.27	885.00
421.40	915.50
421.53	860.00
421.66	828.50
421.79	838.50
421.93	845.00
422.06	835.50
422.19	809.00
422.32	899.50
422.45	870.00
422.58	849.00
422.71	819.00
422.85	881.50
422.98	889.00
423.11	806.50
423.24	775.00
423.37	812.00
423.50	822.00
423.63	840.50
423.77	810.50
423.90	808.00
424.03	869.00
424.16	855.50
424.29	820.00
424.42	782.00
424.55	804.00
424.69	795.00
424.82	840.50
424.95	852.50
425.08	801.00
425.21	850.50
425.34	817.50
425.47	851.50
425.60	856.00
425.74	797.00
425.87	814.00
426.00	835.50
426.13	858.00
426.26	802.00
426.39	807.50
426.52	830.00
426.66	907.00
426.79	854.00
426.92	802.50
427.05	934.00
427.18	895.50
427.31	831.00
427.44	827.50
427.57	819.50
427.71	850.00
427.84	794.00
427.97	831.00
428.10	900.50
428.23	863.00
428.36	814.00
428.49	756.50
428.62	971.50
428.76	935.50
428.89	852.00
429.02	791.00
429.15	839.00
429.28	949.50
429.41	814.00
429.54	829.00
429.67	825.50
429.81	867.00
429.94	826.50
430.07	809.00
430.20	884.50
430.33	918.00
430.46	809.50
430.59	801.00
430.72	847.50
430.85	785.50
430.99	826.50
431.12	796.00
431.25	895.50
431.38	920.50
431.51	844.50
431.64	829.50
431.77	927.00
431.90	921.00
432.03	829.50
432.17	797.00
432.30	853.00
432.43	862.00
432.56	841.00
432.69	862.00
432.82	860.50
432.95	890.00
433.08	829.00
433.21	831.00
433.35	817.00
433.48	831.50
433.61	799.00
433.74	810.00
433.87	810.00
434.00	876.00
434.13	814.00
434.26	862.50
434.39	862.00
434.53	877.00
434.66	829.00
434.79	823.50
434.92	812.00
435.05	928.50
435.18	813.00
435.31	861.00
435.44	917.50
435.57	858.50
435.70	832.00
435.84	797.00
435.97	909.50
436.10	944.50
436.23	813.00
436.36	800.50
436.49	820.50
436.62	861.00
436.75	823.50
436.88	860.50
437.01	809.00
437.14	805.00
437.28	786.50
437.41	818.50
437.54	911.50
437.67	880.00
437.80	816.00
437.93	790.00
438.06	976.50
438.19	896.00
438.32	791.00
438.45	800.00
438.58	871.00
438.72	919.00
438.85	874.00
438.98	829.00
439.11	860.50
439.24	918.00
439.37	898.50
439.50	866.50
439.63	900.00
439.76	809.00
439.89	801.50
440.02	825.50
440.15	868.00
440.29	917.00
440.42	843.00
440.55	827.00
440.68	919.00
440.81	982.50
440.94	843.00
441.07	844.00
441.20	942.50
441.33	856.50
441.46	817.50
441.59	814.00
441.72	839.50
441.85	859.50
441.99	864.50
442.12	865.50
442.25	937.50
442.38	873.50
442.51	858.00
442.64	793.00
442.77	857.50
442.90	838.50
443.03	792.50
443.16	817.00
443.29	852.00
443.42	917.50
443.55	812.50
443.68	840.50
443.82	794.50
443.95	824.00
444.08	822.00
444.21	832.00
444.34	817.50
444.47	838.50
444.60	831.00
444.73	850.00
444.86	852.00
444.99	914.00
445.12	860.00
445.25	841.00
445.38	859.00
445.51	892.50
445.64	828.50
445.78	819.50
445.91	778.50
446.04	960.50
446.17	873.00
446.30	775.50
446.43	871.50
446.56	852.50
446.69	803.00
446.82	810.00
446.95	892.50
447.08	898.00
447.21	851.00
447.34	821.50
447.47	906.00
447.60	882.00
447.73	832.00
447.86	871.00
447.99	846.00
448.13	862.00
448.26	873.00
448.39	823.00
448.52	887.50
448.65	896.00
448.78	839.50
448.91	821.50
449.04	876.00
449.17	838.50
449.30	866.00
449.43	840.00
449.56	846.50
449.69	906.00
449.82	839.00
449.95	788.00
450.08	903.50
450.21	880.50
450.34	831.00
450.47	841.50
450.60	876.50
450.73	849.00
450.87	822.00
451.00	833.50
451.13	892.00
451.26	1011.00
451.39	827.50
451.52	850.50
451.65	846.00
451.78	824.50
451.91	822.00
452.04	806.50
452.17	939.00
452.30	933.00
452.43	821.50
452.56	822.50
452.69	903.50
452.82	814.50
452.95	877.00
453.08	813.50
453.21	769.50
453.34	891.00
453.47	809.50
453.60	880.00
453.73	938.50
453.86	875.00
453.99	854.50
454.12	843.50
454.25	840.50
454.38	867.50
454.52	813.00
454.65	826.50
454.78	810.00
454.91	776.50
455.04	814.00
455.17	808.00
455.30	821.50
455.43	911.50
455.56	824.00
455.69	814.00
455.82	872.50
455.95	865.00
456.08	810.00
456.21	804.50
456.34	787.00
456.47	773.50
456.60	820.00
456.73	806.00
456.86	845.50
456.99	874.50
457.12	807.00
457.25	811.00
457.38	907.00
457.51	884.00
457.64	845.00
457.77	818.00
457.90	846.50
458.03	827.50
458.16	827.50
458.29	831.50
458.42	834.00
458.55	797.00
458.68	798.50
458.81	827.00
458.94	916.00
459.07	948.50
459.20	791.00
459.33	796.00
459.46	909.50
459.59	946.50
459.72	901.00
459.85	822.50
459.98	918.50
460.11	868.50
460.24	831.50
460.37	794.50
460.50	879.50
460.63	856.50
460.76	821.00
460.89	842.00
461.02	870.00
461.15	875.00
461.28	843.00
461.41	827.00
461.54	926.50
461.67	813.00
461.80	845.50
461.93	885.50
462.06	878.50
462.19	912.50
462.32	832.50
462.45	820.00
462.58	873.00
462.71	829.00
462.84	822.50
462.97	775.00
463.10	840.50
463.23	862.00
463.36	866.50
463.49	846.00
463.62	791.00
463.75	862.50
463.88	823.00
464.01	835.00
464.14	812.50
464.27	945.00
464.40	827.50
464.53	830.00
464.66	877.00
464.79	870.50
464.92	844.50
465.05	811.50
465.18	842.50
465.31	846.00
465.44	842.00
465.57	819.50
465.70	834.00
465.83	957.00
465.96	849.50
466.09	822.50
466.22	892.00
466.35	873.00
466.48	824.00
466.61	805.50
466.74	855.50
466.87	883.00
467.00	866.00
467.13	870.00
467.26	887.00
467.39	801.00
467.52	802.00
467.65	819.50
467.78	915.50
467.91	854.00
468.04	861.00
468.17	826.00
468.30	838.50
468.43	807.50
468.56	813.00
468.69	861.00
468.82	879.50
468.95	805.00
469.08	825.50
469.21	830.00
469.34	883.00
469.47	959.00
469.60	929.00
469.73	854.00
469.86	856.00
469.99	893.00
470.11	816.00
470.24	830.00
470.37	886.50
470.50	856.50
470.63	816.00
470.76	846.00
470.89	891.50
471.02	975.00
471.15	825.50
471.28	833.50
471.41	953.00
471.54	879.00
471.67	836.50
471.80	785.00
471.93	901.00
472.06	872.50
472.19	833.00
472.32	810.50
472.45	975.50
472.58	906.50
472.71	848.50
472.84	831.00
472.97	836.00
473.10	815.00
473.23	890.50
473.36	797.50
473.49	905.50
473.62	886.00
473.74	866.00
473.87	878.50
474.00	831.50
474.13	829.00
474.26	863.00
474.39	876.50
474.52	845.00
474.65	834.50
474.78	845.00
474.91	785.00
475.04	876.50
475.17	979.50
475.30	865.50
475.43	858.50
475.56	911.50
475.69	859.00
475.82	871.00
475.95	819.50
476.08	936.50
476.21	860.00
476.34	891.00
476.46	884.00
476.59	923.50
476.72	843.50
476.85	838.50
476.98	809.00
477.11	915.50
477.24	874.00
477.37	800.00
477.50	829.50
477.63	880.50
477.76	829.50
477.89	794.50
478.02	799.50
478.15	851.00
478.28	834.50
478.41	860.50
478.54	836.00
478.66	894.00
478.79	854.50
478.92	845.00
479.05	846.50
479.18	859.50
479.31	826.00
479.44	826.50
479.57	823.50
479.70	835.00
479.83	878.00
479.96	838.50
480.09	867.50
480.22	988.00
480.35	971.00
480.48	888.00
480.60	853.50
480.73	842.00
480.86	893.50
480.99	838.50
481.12	846.50
481.25	857.00
481.38	917.50
481.51	844.50
481.64	856.50
481.77	891.50
481.90	844.00
482.03	850.50
482.16	835.00
482.29	927.00
482.41	863.50
482.54	887.00
482.67	831.00
482.80	869.00
482.93	919.00
483.06	830.00
483.19	918.00
483.32	884.00
483.45	855.00
483.58	864.50
483.71	874.50
483.84	911.50
483.97	884.00
484.09	857.50
484.22	839.50
484.35	827.50
484.48	807.50
484.61	830.00
484.74	845.50
484.87	883.50
485.00	825.00
485.13	865.50
485.26	815.00
485.39	894.50
485.52	854.50
485.64	924.00
485.77	884.50
485.90	912.50
486.03	818.00
486.16	873.50
486.29	814.00
486.42	856.00
486.55	877.50
486.68	855.00
486.81	881.00
486.94	880.50
487.06	847.00
487.19	879.50
487.32	872.50
487.45	865.50
487.58	845.50
487.71	863.00
487.84	828.50
487.97	888.50
488.10	919.50
488.23	854.50
488.35	804.00
488.48	851.00
488.61	821.50
488.74	848.50
488.87	835.50
489.00	875.00
489.13	985.00
489.26	901.00
489.39	896.00
489.52	914.00
489.64	901.50
489.77	874.50
489.90	877.00
490.03	863.00
490.16	844.50
490.29	845.00
490.42	846.50
490.55	889.50
490.68	837.50
490.81	851.00
490.93	815.00
491.06	940.50
491.19	898.50
491.32	878.50
491.45	893.00
491.58	824.00
491.71	860.00
491.84	843.00
491.97	839.00
492.09	931.50
492.22	902.50
492.35	872.50
492.48	891.00
492.61	881.50
492.74	864.00
492.87	875.50
493.00	861.00
493.12	851.50
493.25	869.00
493.38	852.50
493.51	837.50
493.64	826.50
493.77	866.50
493.90	878.00
494.03	884.50
494.16	932.00
494.28	943.00
494.41	857.50
494.54	877.50
494.67	979.50
494.80	946.00
494.93	864.00
495.06	883.00
495.19	907.50
495.31	879.00
495.44	845.50
495.57	841.50
495.70	907.00
495.83	886.50
495.96	834.50
496.09	871.00
496.22	940.00
496.34	970.50
496.47	855.00
496.60	881.00
496.73	922.00
496.86	920.50
496.99	839.50
497.12	887.00
497.24	812.50
497.37	883.50
497.50	856.00
497.63	824.50
497.76	862.50
497.89	936.00
498.02	883.50
498.15	792.50
498.27	879.50
498.40	936.00
498.53	932.00
498.66	874.50
498.79	928.50
498.92	815.50
499.05	874.50
499.17	876.50
499.30	915.00
499.43	977.50
499.56	890.50
499.69	822.00
499.82	895.00
499.95	853.00
500.07	842.00
500.20	864.00
500.33	922.00
500.46	1030.00
500.59	876.50
500.72	880.00
500.85	928.50
500.97	923.00
501.10	927.50
501.23	841.50
501.36	885.00
501.49	953.50
501.62	901.00
501.75	862.00
501.87	932.00
502.00	830.00
502.13	889.50
502.26	875.50
502.39	850.50
502.52	864.00
502.64	829.00
502.77	858.50
502.90	916.00
503.03	871.00
503.16	853.00
503.29	854.00
503.42	914.00
503.54	896.50
503.67	877.00
503.80	879.50
503.93	928.00
504.06	853.00
504.19	864.50
504.31	921.50
504.44	885.50
504.57	920.00
504.70	900.50
504.83	832.50
504.96	904.50
505.08	883.00
505.21	877.50
505.34	980.00
505.47	941.50
505.60	919.50
505.73	915.50
505.85	921.50
505.98	1033.50
506.11	884.50
506.24	858.00
506.37	847.00
506.50	891.00
506.62	928.50
506.75	861.50
506.88	854.00
507.01	898.00
507.14	842.00
507.27	881.00
507.39	849.50
507.52	870.50
507.65	857.50
507.78	888.00
507.91	853.00
508.04	944.00
508.16	933.50
508.29	893.50
508.42	864.00
508.55	851.00
508.68	859.50
508.81	917.00
508.93	871.00
509.06	870.00
509.19	918.50
509.32	900.00
509.45	893.00
509.57	904.00
509.70	857.00
509.83	890.00
509.96	844.50
510.09	889.00
510.22	878.00
510.34	889.00
510.47	881.00
510.60	980.00
510.73	901.00
510.86	897.50
510.98	874.00
511.11	875.00
511.24	937.50
511.37	909.50
511.50	859.50
511.63	899.00
511.75	900.50
511.88	894.00
512.01	904.00
512.14	880.50
512.27	903.00
512.39	876.00
512.52	867.00
512.65	897.00
512.78	856.00
512.91	881.00
513.03	892.00
513.16	932.50
513.29	900.50
513.42	873.50
513.55	849.00
513.67	903.50
513.80	830.00
513.93	861.50
514.06	854.00
514.19	913.00
514.31	918.50
514.44	925.50
514.57	885.00
514.70	906.50
514.83	955.00
514.95	861.50
515.08	893.00
515.21	928.00
515.34	900.50
515.47	866.50
515.59	861.50
515.72	923.50
515.85	918.50
515.98	934.00
516.11	896.50
516.23	930.00
516.36	953.00
516.49	913.50
516.62	892.00
516.75	961.00
516.87	955.50
517.00	865.50
517.13	904.50
517.26	964.00
517.39	916.00
517.51	833.00
517.64	893.50
517.77	974.50
517.90	864.00
518.02	890.50
518.15	841.50
518.28	814.00
518.41	888.00
518.54	894.00
518.66	894.50
518.79	856.00
518.92	868.00
519.05	855.00
519.18	879.00
519.30	924.00
519.43	858.50
519.56	871.50
519.69	874.00
519.81	943.50
519.94	884.00
520.07	827.00
520.20	878.50
520.33	901.50
520.45	969.00
520.58	896.00
520.71	904.00
520.84	940.50
520.96	915.50
521.09	891.50
521.22	854.50
521.35	926.50
521.48	921.50
521.60	870.50
521.73	892.50
521.86	958.00
521.99	986.00
522.11	916.50
522.24	879.00
522.37	931.50
522.50	917.00
522.62	957.50
522.75	846.50
522.88	911.50
523.01	882.50
523.14	904.00
523.26	912.50
523.39	958.00
523.52	873.50
523.65	976.00
523.77	924.00
523.90	903.50
524.03	897.00
524.16	880.50
524.28	865.00
524.41	881.00
524.54	902.50
524.67	863.50
524.79	870.50
524.92	924.50
525.05	972.00
525.18	860.00
525.31	929.50
525.43	869.50
525.56	1014.50
525.69	878.50
525.82	836.00
525.94	953.50
526.07	944.00
526.20	924.00
526.33	942.00
526.45	1040.50
526.58	1001.00
526.71	911.00
526.84	891.50
526.96	905.50
527.09	854.50
527.22	897.00
527.35	886.50
527.47	846.50
527.60	968.00
527.73	872.50
527.86	923.00
527.98	928.00
528.11	928.50
528.24	885.50
528.37	888.00
528.49	857.50
528.62	912.00
528.75	934.00
528.88	873.50
529.00	929.00
529.13	955.00
529.26	895.00
529.39	942.50
529.51	1035.50
529.64	1004.00
529.77	884.00
529.90	886.00
530.02	897.50
530.15	885.00
530.28	836.50
530.40	875.50
530.53	911.00
530.66	941.50
530.79	888.50
530.91	889.50
531.04	881.50
531.17	883.50
531.30	891.50
531.42	908.50
531.55	908.50
531.68	972.50
531.81	887.50
531.93	890.00
532.06	915.50
532.19	870.50
532.31	896.50
532.44	886.50
532.57	932.00
532.70	882.50
532.82	900.50
532.95	922.00
533.08	976.50
533.21	936.50
533.33	872.00
533.46	882.00
533.59	891.00
533.71	1014.50
533.84	917.00
533.97	873.50
534.10	880.00
534.22	875.00
534.35	896.00
534.48	906.50
534.61	942.00
534.73	837.50
534.86	868.50
534.99	908.00
535.11	967.00
535.24	913.00
535.37	867.00
535.50	861.00
535.62	873.00
535.75	971.50
535.88	902.50
536.00	877.50
536.13	893.00
536.26	880.50
536.39	876.00
536.51	854.50
536.64	932.00
536.77	898.50
536.89	897.50
537.02	912.50
537.15	930.00
537.28	918.50
537.40	919.50
537.53	888.00
537.66	937.00
537.78	921.00
537.91	867.00
538.04	887.00
538.17	951.50
538.29	936.00
538.42	986.00
538.55	953.50
538.67	951.50
538.80	893.00
538.93	917.50
539.05	905.50
539.18	977.50
539.31	955.00
539.44	924.00
539.56	841.50
539.69	897.50
539.82	894.50
539.94	901.00
540.07	878.00
540.20	990.50
540.32	880.00
540.45	899.00
540.58	890.00
540.71	953.50
540.83	854.50
540.96	885.50
541.09	898.00
541.21	994.50
541.34	979.50
541.47	874.50
541.59	911.00
541.72	991.00
541.85	1061.50
541.98	965.00
542.10	909.50
542.23	923.00
542.36	1034.50
542.48	918.50
542.61	913.00
542.74	877.00
542.86	897.50
542.99	899.00
543.12	885.00
543.24	910.50
543.37	846.00
543.50	899.00
543.62	873.00
543.75	905.00
543.88	899.00
544.01	919.50
544.13	928.50
544.26	936.00
544.39	879.00
544.51	872.50
544.64	861.00
544.77	946.50
544.89	899.50
545.02	911.50
545.15	887.50
545.27	992.50
545.40	978.50
545.53	938.50
545.65	931.00
545.78	825.00
545.91	872.00
546.03	897.00
546.16	909.50
546.29	902.50
546.41	858.50
546.54	902.00
546.67	890.50
546.79	953.00
546.92	980.00
547.05	854.00
547.17	898.00
547.30	878.00
547.43	938.00
547.56	858.50
547.68	893.00
547.81	861.50
547.94	938.00
548.06	899.50
548.19	878.00
548.32	984.50
548.44	928.00
548.57	927.00
548.70	936.00
548.82	960.00
548.95	951.00
549.08	918.50
549.20	898.50
549.33	1006.50
549.45	929.50
549.58	904.00
549.71	868.50
549.83	952.50
549.96	864.50
550.09	902.50
550.21	880.00
550.34	930.50
550.47	887.50
550.59	899.00
550.72	842.00
550.85	910.00
550.97	980.00
551.10	897.50
551.23	897.50
551.35	992.00
551.48	946.00
551.61	913.50
551.73	886.00
551.86	985.50
551.99	981.00
552.11	923.00
552.24	940.00
552.37	928.50
552.49	904.50
552.62	897.50
552.75	945.50
552.87	899.00
553.00	909.50
553.12	919.50
553.25	897.00
553.38	941.50
553.50	981.00
553.63	907.00
553.76	846.00
553.88	907.50
554.01	919.50
554.14	910.50
554.26	937.00
554.39	997.50
554.52	915.50
554.64	906.00
554.77	895.00
554.89	954.50
555.02	984.50
555.15	927.00
555.27	913.50
555.40	916.00
555.53	975.50
555.65	911.50
555.78	882.50
555.91	951.50
556.03	994.00
556.16	890.50
556.29	921.50
556.41	981.50
556.54	994.00
556.66	919.50
556.79	894.50
556.92	922.00
557.04	929.50
557.17	908.00
557.30	899.50
557.42	905.50
557.55	909.50
557.67	921.50
557.80	910.50
557.93	923.50
558.05	935.00
558.18	881.50
558.31	918.50
558.43	972.50
558.56	946.50
558.68	919.00
558.81	886.00
558.94	912.50
559.06	1047.00
559.19	925.00
559.32	905.00
559.44	876.50
559.57	925.50
559.69	891.50
559.82	888.00
559.95	917.50
560.07	910.50
560.20	842.00
560.33	920.50
560.45	934.50
560.58	858.00
560.70	922.00
560.83	880.50
560.96	916.50
561.08	913.00
561.21	944.00
561.33	884.50
561.46	872.00
561.59	962.50
561.71	900.00
561.84	920.50
561.97	881.00
562.09	951.50
562.22	895.00
562.34	888.50
562.47	971.00
562.60	938.50
562.72	925.50
562.85	925.50
562.97	924.50
563.10	905.50
563.23	888.50
563.35	896.50
563.48	945.50
563.60	928.50
563.73	942.00
563.86	873.50
563.98	891.50
564.11	919.00
564.23	910.50
564.36	973.50
564.49	920.50
564.61	999.50
564.74	931.50
564.86	895.00
564.99	963.50
565.12	945.50
565.24	958.50
565.37	960.50
565.49	978.50
565.62	1020.00
565.75	961.50
565.87	889.00
566.00	1060.50
566.12	983.00
566.25	935.50
566.38	947.50
566.50	930.50
566.63	969.50
566.75	915.50
566.88	905.00
567.01	889.50
567.13	911.50
567.26	912.50
567.38	897.00
567.51	973.50
567.64	914.00
567.76	951.00
567.89	928.50
568.01	901.00
568.14	886.00
568.26	924.50
568.39	929.00
568.52	924.00
568.64	956.00
568.77	900.50
568.89	904.50
569.02	900.00
569.15	928.00
569.27	904.00
569.40	939.00
569.52	964.00
569.65	915.50
569.77	926.00
569.90	873.50
570.03	880.00
570.15	1000.50
570.28	922.00
570.40	928.00
570.53	904.50
570.66	991.00
570.78	976.00
570.91	939.00
571.03	901.50
571.16	937.50
571.28	887.50
571.41	871.50
571.54	873.50
571.66	864.00
571.79	900.50
571.91	905.50
572.04	879.00
572.16	937.50
572.29	946.00
572.42	891.50
572.54	937.50
572.67	901.00
572.79	945.50
572.92	910.50
573.04	947.50
573.17	975.00
573.29	939.00
573.42	913.00
573.55	969.50
573.67	948.00
573.80	919.00
573.92	886.00
574.05	943.00
574.17	994.50
574.30	918.50
574.43	907.00
574.55	898.00
574.68	925.50
574.80	907.50
574.93	918.00
575.05	875.50
575.18	904.00
575.30	906.50
575.43	953.00
575.56	998.00
575.68	949.50
575.81	906.00
575.93	883.50
576.06	955.50
576.18	968.00
576.31	937.00
576.43	903.00
576.56	1020.50
576.69	979.50
576.81	943.00
576.94	922.50
577.06	936.00
577.19	970.00
577.31	930.50
577.44	944.50
577.56	980.50
577.69	947.50
577.82	941.50
577.94	895.00
578.07	890.00
578.19	969.50
578.32	969.00
578.44	903.50
578.57	928.50
578.69	980.50
578.82	944.00
578.94	967.00
579.07	994.50
579.19	972.50
579.32	952.50
579.45	951.00
579.57	921.50
579.70	888.50
579.82	952.00
579.95	923.50
580.07	1000.50
580.20	934.50
580.32	937.50
580.45	959.50
580.57	976.50
580.70	931.00
580.82	947.00
580.95	954.50
581.08	902.00
581.20	1009.00
581.33	918.00
581.45	945.50
581.58	941.50
581.70	963.50
581.83	851.00
581.95	926.00
582.08	967.00
582.20	913.50
582.33	922.50
582.45	901.50
582.58	931.00
582.70	959.00
582.83	911.50
582.95	929.50
583.08	981.00
583.21	989.00
583.33	957.00
583.46	908.50
583.58	889.50
583.71	979.00
583.83	946.00
583.96	959.00
584.08	976.50
584.21	969.50
584.33	969.50
584.46	930.00
584.58	888.00
584.71	978.00
584.83	966.50
584.96	936.00
585.08	912.50
585.21	1054.50
585.33	1007.00
585.46	962.00
585.58	979.00
585.71	917.50
585.83	944.00
585.96	979.00
586.08	984.00
586.21	970.50
586.33	970.50
586.46	886.00
586.59	974.00
586.71	913.00
586.84	961.00
586.96	943.00
587.09	884.50
587.21	936.50
587.34	975.50
587.46	916.50
587.59	893.00
587.71	935.00
587.84	925.00
587.96	898.00
588.09	905.50
588.21	957.00
588.34	925.00
588.46	955.00
588.59	916.50
588.71	952.00
588.84	947.50
588.96	930.50
589.09	1030.50
589.21	949.00
589.34	913.50
589.46	932.00
589.59	953.50
589.71	1009.00
589.84	893.00
589.96	911.00
590.09	940.00
590.21	993.50
590.34	951.50
590.46	944.50
590.59	923.00
590.71	937.00
590.84	979.50
590.96	904.50
591.09	961.50
591.21	949.00
591.34	917.00
591.46	935.50
591.59	992.00
591.71	985.50
591.83	929.50
591.96	881.50
592.08	928.00
592.21	974.00
592.33	944.00
592.46	933.50
592.58	965.00
592.71	991.50
592.83	1025.50
592.96	974.50
593.08	987.50
593.21	906.00
593.33	894.00
593.46	936.50
593.58	941.50
593.71	981.50
593.83	991.00
593.96	913.50
594.08	1069.00
594.21	951.00
594.33	929.50
594.46	912.50
594.58	890.00
594.71	879.00
594.83	964.00
594.96	939.00
595.08	1132.00
595.20	982.50
595.33	950.00
595.45	908.50
595.58	1036.00
595.70	965.00
595.83	921.00
595.95	931.50
596.08	950.50
596.20	896.50
596.33	894.50
596.45	939.50
596.58	913.00
596.70	905.50
596.83	916.00
596.95	926.00
597.08	956.00
597.20	898.50
597.32	934.50
597.45	959.50
597.57	950.00
597.70	984.00
597.82	938.50
597.95	939.50
598.07	948.50
598.20	946.50
598.32	936.50
598.45	934.50
598.57	990.50
598.70	1010.50
598.82	923.00
598.94	927.00
599.07	997.00
599.19	945.00
599.32	924.50
599.44	842.50
599.57	975.50
599.69	954.00
599.82	926.50
599.94	902.50
600.07	1001.00
600.19	969.50
600.31	927.50
600.44	966.00
600.56	1054.00
600.69	1041.00
600.81	928.50
600.94	941.00
601.06	965.50
601.19	981.50
601.31	984.00
601.44	900.50
601.56	1015.00
601.68	987.00
601.81	972.00
601.93	954.00
602.06	979.00
602.18	897.50
602.31	939.50
602.43	992.00
602.56	980.00
602.68	950.50
602.80	958.50
602.93	954.00
603.05	918.50
603.18	947.00
603.30	907.50
603.43	909.50
603.55	944.00
603.68	966.00
603.80	935.50
603.92	959.50
604.05	923.00
604.17	922.50
604.30	900.00
604.42	926.50
604.55	949.00
604.67	985.50
604.79	923.50
604.92	925.50
605.04	921.00
605.17	937.00
605.29	922.50
605.42	928.00
605.54	1011.50
605.66	960.50
605.79	960.50
605.91	960.50
606.04	947.00
606.16	930.00
606.29	946.50
606.41	909.50
606.53	937.00
606.66	901.00
606.78	936.00
606.91	914.00
607.03	929.00
607.16	932.50
607.28	922.50
607.40	952.00
607.53	961.50
607.65	908.50
607.78	913.50
607.90	942.00
608.03	1050.50
608.15	974.00
608.27	961.50
608.40	905.50
608.52	971.50
608.65	954.00
608.77	987.50
608.89	954.00
609.02	1034.50
609.14	1044.00
609.27	968.50
609.39	979.00
609.52	923.00
609.64	887.00
609.76	921.50
609.89	934.00
610.01	1025.00
610.14	974.00
610.26	934.00
610.38	908.50
610.51	990.50
610.63	934.00
610.76	912.50
610.88	968.50
611.01	1016.50
611.13	1061.00
611.25	995.50
611.38	924.50
611.50	953.00
611.63	985.00
611.75	966.00
611.87	961.50
612.00	937.50
612.12	1001.00
612.25	931.50
612.37	923.50
612.49	1027.50
612.62	1001.00
612.74	1012.00
612.87	955.00
612.99	969.50
613.11	901.50
613.24	936.00
613.36	953.50
613.49	966.50
613.61	959.00
613.73	925.00
613.86	976.00
613.98	924.50
614.11	999.00
614.23	995.00
614.35	1004.00
614.48	1006.50
614.60	968.00
614.72	933.00
614.85	966.00
614.97	959.50
615.10	966.50
615.22	924.00
615.34	949.50
615.47	1007.50
615.59	930.00
615.72	951.00
615.84	972.00
615.96	924.00
616.09	1050.00
616.21	952.50
616.34	929.00
616.46	946.50
616.58	973.50
616.71	986.00
616.83	994.50
616.95	992.00
617.08	982.50
617.20	943.50
617.33	921.00
617.45	946.50
617.57	981.50
617.70	972.00
617.82	934.00
617.95	968.50
618.07	1030.50
618.19	979.00
618.32	955.50
618.44	923.50
618.56	915.00
618.69	885.50
618.81	897.00
618.94	986.00
619.06	966.50
619.18	950.00
619.31	907.50
619.43	928.50
619.55	980.00
619.68	979.00
619.80	907.50
619.92	973.50
620.05	1092.00
620.17	1005.00
620.30	957.50
620.42	980.50
620.54	1011.00
620.67	944.00
620.79	968.50
620.91	980.50
621.04	1030.00
621.16	945.50
621.29	929.00
621.41	904.50
621.53	944.50
621.66	949.00
621.78	943.50
621.90	998.50
622.03	1056.00
622.15	945.50
622.27	952.00
622.40	965.50
622.52	939.00
622.64	939.50
622.77	921.50
622.89	980.00
623.02	994.50
623.14	965.50
623.26	983.50
623.39	986.50
623.51	1022.00
623.63	949.00
623.76	923.00
623.88	1026.50
624.00	980.00
624.13	933.50
624.25	930.50
624.37	914.50
624.50	1009.50
624.62	987.50
624.75	914.50
624.87	923.00
624.99	990.50
625.12	937.50
625.24	934.00
625.36	1042.50
625.49	988.50
625.61	974.50
625.73	954.50
625.86	991.00
625.98	972.00
626.10	945.00
626.23	902.50
626.35	986.50
626.47	950.00
626.60	917.00
626.72	917.50
626.84	946.00
626.97	988.50
627.09	962.50
627.21	961.00
627.34	1075.00
627.46	1051.50
627.58	951.00
627.71	975.00
627.83	1004.00
627.95	924.00
628.08	962.00
628.20	996.50
628.32	902.50
628.45	871.50
628.57	897.50
628.69	920.50
628.82	978.50
628.94	1011.00
629.06	959.00
629.19	929.00
629.31	1006.50
629.43	930.00
629.56	959.00
629.68	957.00
629.80	1018.50
629.93	929.00
630.05	932.00
630.17	913.50
630.30	950.00
630.42	938.00
630.54	975.50
630.67	955.00
630.79	926.50
630.91	1086.50
631.04	977.00
631.16	974.50
631.28	974.00
631.41	934.50
631.53	914.00
631.65	959.00
631.78	993.00
631.90	980.00
632.02	956.50
632.14	865.50
632.27	1029.50
632.39	976.50
632.51	934.00
632.64	993.00
632.76	959.00
632.88	931.00
633.01	955.00
633.13	943.00
633.25	973.50
633.38	1073.00
633.50	909.00
633.62	908.50
633.75	907.50
633.87	890.50
633.99	966.50
634.11	910.50
634.24	944.50
634.36	954.50
634.48	949.00
634.61	925.00
634.73	978.50
634.85	944.50
634.98	937.00
635.10	944.00
635.22	949.50
635.35	1087.00
635.47	966.50
635.59	962.50
635.71	980.00
635.84	1022.00
635.96	943.50
636.08	984.50
636.21	936.50
636.33	986.50
636.45	964.50
636.58	937.50
636.70	903.00
636.82	977.50
636.94	930.50
637.07	892.00
637.19	1000.00
637.31	993.00
637.44	981.50
637.56	910.50
637.68	990.00
637.81	978.00
637.93	956.50
638.05	914.00
638.17	1017.00
638.30	1088.00
638.42	959.00
638.54	917.50
638.67	958.50
638.79	966.00
638.91	933.50
639.03	937.00
639.16	941.50
639.28	956.50
639.40	947.50
639.53	929.50
639.65	986.50
639.77	956.50
639.89	955.00
640.02	957.00
640.14	963.00
640.26	910.00
640.39	990.00
640.51	934.00
640.63	995.50
640.75	1008.50
640.88	948.50
641.00	944.50
641.12	929.50
641.24	1046.50
641.37	951.00
641.49	921.00
641.61	1070.50
641.74	937.00
641.86	971.00
641.98	922.50
642.10	979.00
642.23	991.50
642.35	952.50
642.47	980.00
642.60	979.00
642.72	994.50
642.84	890.00
642.96	914.00
643.09	925.00
643.21	923.50
643.33	917.50
643.45	925.50
643.58	1011.50
643.70	1047.50
643.82	949.50
643.94	949.50
644.07	959.50
644.19	985.50
644.31	967.00
644.44	969.50
644.56	953.00
644.68	917.50
644.80	927.00
644.93	929.50
645.05	932.50
645.17	979.00
645.29	975.50
645.42	969.00
645.54	963.00
645.66	995.00
645.78	946.50
645.91	940.50
646.03	992.00
646.15	1046.50
646.27	953.00
646.40	975.50
646.52	1008.00
646.64	1021.00
646.76	945.50
646.89	902.00
647.01	993.00
647.13	985.50
647.25	1005.50
647.38	957.00
647.50	936.00
647.62	995.50
647.74	904.00
647.87	923.50
647.99	982.00
648.11	997.00
648.23	952.50
648.36	910.00
648.48	1043.00
648.60	976.50
648.72	936.50
648.85	904.50
648.97	1000.50
649.09	979.00
649.21	937.50
649.34	974.00
649.46	983.00
649.58	971.50
649.70	990.50
649.83	930.50
649.95	982.00
650.07	1007.50
650.19	1034.50
650.32	977.50
650.44	1017.50
650.56	978.50
650.68	951.50
650.81	941.00
650.93	947.50
651.05	1035.50
651.17	936.00
651.29	990.50
651.42	962.50
651.54	984.50
651.66	932.50
651.78	928.50
651.91	990.50
652.03	1088.00
652.15	997.00
652.27	934.50
652.40	990.00
652.52	955.00
652.64	968.50
652.76	948.50
652.88	1078.00
653.01	986.50
653.13	935.50
653.25	902.00
653.37	1003.00
653.50	1022.50
653.62	987.50
653.74	920.00
653.86	1017.50
653.98	1020.00
654.11	938.50
654.23	947.00
654.35	948.50
654.47	1095.50
654.60	951.50
654.72	958.00
654.84	936.50
654.96	1017.50
655.08	940.00
655.21	991.50
655.33	972.50
655.45	1037.00
655.57	974.50
655.70	983.50
655.82	1036.50
655.94	1044.00
656.06	999.50
656.18	936.00
656.31	1024.50
656.43	1002.00
656.55	936.00
656.67	971.00
656.79	976.00
656.92	1038.00
657.04	984.00
657.16	947.50
657.28	1099.50
657.40	996.00
657.53	1011.50
657.65	965.50
657.77	1038.00
657.89	1028.50
658.01	949.50
658.14	934.50
658.26	1008.00
658.38	963.00
658.50	938.00
658.62	942.00
658.75	1096.00
658.87	1008.00
658.99	990.50
659.11	928.50
659.23	1023.00
659.36	1091.50
659.48	1029.50
659.60	984.00
659.72	989.00
659.84	991.50
659.97	995.50
660.09	1000.00
660.21	1094.50
660.33	1028.50
660.45	926.50
660.58	886.50
660.70	937.00
660.82	961.00
660.94	920.00
661.06	961.00
661.19	1041.00
661.31	1013.00
661.43	977.50
661.55	974.00
661.67	1019.00
661.80	1048.00
661.92	977.50
662.04	979.00
662.16	992.00
662.28	1052.00
662.40	975.50
662.53	982.50
662.65	1004.00
662.77	945.50
662.89	975.00
663.01	953.50
663.14	981.50
663.26	1008.00
663.38	972.00
663.50	945.50
663.62	955.50
663.74	977.50
663.87	954.50
663.99	994.00
664.11	1022.50
664.23	1118.50
664.35	965.00
664.48	965.50
664.60	972.50
664.72	965.00
664.84	937.00
664.96	967.50
665.08	1052.50
665.21	1007.00
665.33	1021.50
665.45	935.50
665.57	985.50
665.69	1071.00
665.81	982.50
665.94	944.50
666.06	950.50
666.18	1002.00
666.30	961.50
666.42	958.00
666.54	991.50
666.67	1003.50
666.79	932.50
666.91	1020.50
667.03	980.00
667.15	926.50
667.27	969.50
667.40	940.50
667.52	967.50
667.64	1037.50
667.76	964.50
667.88	946.50
668.00	1022.00
668.13	1031.50
668.25	945.00
668.37	937.00
668.49	966.50
668.61	1030.50
668.73	982.00
668.85	981.00
668.98	1002.00
669.10	995.00
669.22	961.50
669.34	969.00
669.46	1033.00
669.58	960.00
669.71	991.50
669.83	983.50
669.95	976.00
670.07	989.00
670.19	954.00
670.31	971.00
670.43	961.00
670.56	997.00
670.68	1030.00
670.80	1003.00
670.92	993.00
671.04	1053.00
671.16	970.50
671.28	960.00
671.41	970.00
671.53	1025.50
671.65	951.00
671.77	972.00
671.89	1153.00
672.01	1080.50
672.13	1019.50
672.26	953.50
672.38	999.50
672.50	965.00
672.62	985.50
672.74	1005.00
672.86	997.50
672.98	1004.50
673.11	989.50
673.23	996.50
673.35	1061.00
673.47	984.00
673.59	979.50
673.71	939.00
673.83	1016.50
673.96	1105.50
674.08	975.00
674.20	949.00
674.32	969.00
674.44	997.50
674.56	997.50
674.68	1001.50
674.80	1030.00
674.93	999.50
675.05	976.50
675.17	983.50
675.29	1042.00
675.41	1033.00
675.53	985.50
675.65	977.00
675.77	986.50
675.90	1049.00
676.02	970.00
676.14	965.00
676.26	1060.50
676.38	1101.50
676.50	996.50
676.62	1015.50
676.74	962.50
676.87	985.00
676.99	1002.00
677.11	1034.50
677.23	1010.50
677.35	1036.00
677.47	949.00
677.59	960.00
677.71	1011.00
677.83	1019.00
677.96	1000.00
678.08	995.00
678.20	1002.50
678.32	961.50
678.44	999.50
678.56	976.50
678.68	1158.00
678.80	1048.50
678.93	982.50
679.05	1011.50
679.17	990.50
679.29	1045.50
679.41	986.50
679.53	964.00
679.65	974.50
679.77	1006.50
679.89	989.00
680.01	1015.00
680.14	1031.00
680.26	935.50
680.38	977.50
680.50	1014.00
680.62	1091.00
680.74	1032.00
680.86	993.00
680.98	999.50
681.10	1021.00
681.22	1099.00
681.35	972.50
681.47	986.50
681.59	963.50
681.71	1091.50
681.83	995.50
681.95	963.50
682.07	1060.00
682.19	1018.00
682.31	978.00
682.43	949.00
682.56	1036.50
682.68	956.50
682.80	967.00
682.92	1023.50
683.04	1019.50
683.16	995.00
683.28	967.00
683.40	1021.00
683.52	998.50
683.64	1018.50
683.76	957.00
683.89	985.00
684.01	1005.00
684.13	1061.00
684.25	995.50
684.37	1001.50
684.49	1036.50
684.61	984.50
684.73	997.50
684.85	990.00
684.97	966.00
685.09	1061.00
685.21	961.00
685.34	989.00
685.46	1140.50
685.58	1033.50
685.70	1020.00
685.82	1032.50
685.94	974.50
686.06	960.50
686.18	954.00
686.30	981.00
686.42	945.00
686.54	1034.50
686.66	978.00
686.79	1076.50
686.91	1032.00
687.03	1141.00
687.15	1023.50
687.27	987.50
687.39	1003.00
687.51	1085.50
687.63	1024.00
687.75	1044.00
687.87	1026.00
687.99	1069.00
688.11	971.00
688.23	1026.00
688.35	1073.00
688.48	1052.00
688.60	965.00
688.72	979.00
688.84	1014.00
688.96	1035.50
689.08	1005.50
689.20	998.00
689.32	1125.00
689.44	1021.50
689.56	955.50
689.68	963.50
689.80	987.50
689.92	991.00
690.04	965.50
690.16	1042.00
690.28	1033.50
690.41	1029.00
690.53	968.50
690.65	1027.00
690.77	1061.00
690.89	1065.00
691.01	995.50
691.13	975.50
691.25	967.00
691.37	1003.00
691.49	951.00
691.61	949.50
691.73	1097.50
691.85	1012.00
691.97	1003.50
692.09	977.50
692.21	1063.50
692.33	1082.00
692.45	1014.50
692.57	1001.50
692.70	1034.50
692.82	1049.00
692.94	947.00
693.06	975.50
693.18	1037.50
693.30	1002.00
693.42	983.00
693.54	1004.50
693.66	1031.00
693.78	1029.50
693.90	982.00
694.02	1008.00
694.14	1045.00
694.26	999.50
694.38	1008.00
694.50	1008.00
694.62	1025.50
694.74	977.00
694.86	966.50
694.98	1016.50
695.10	1026.00
695.22	1077.00
695.34	999.00
695.46	983.00
695.58	987.50
695.71	1034.00
695.83	979.50
695.95	988.00
696.07	1067.50
696.19	977.00
696.31	985.00
696.43	974.50
696.55	1105.00
696.67	1023.00
696.79	985.50
696.91	996.00
697.03	992.50
697.15	1097.50
697.27	1027.00
697.39	978.00
697.51	1038.50
697.63	982.50
697.75	981.50
697.87	1011.50
697.99	966.00
698.11	932.00
698.23	967.50
698.35	982.00
698.47	982.50
698.59	1029.50
698.71	984.00
698.83	1046.00
698.95	1002.00
699.07	1023.00
699.19	984.50
699.31	1006.00
699.43	979.00
699.55	1027.00
699.67	991.00
699.79	990.00
699.91	994.00
700.03	1026.00
700.15	1007.50
700.27	960.00
700.39	1003.50
700.51	968.50
700.63	983.50
700.75	993.50
700.87	1029.50
700.99	988.00
701.11	1023.00
701.24	1001.00
701.36	1052.50
701.48	1059.00
701.60	1028.00
701.72	969.00
701.84	1089.50
701.96	1029.50
702.08	994.00
702.20	1101.50
702.32	1046.50
702.44	1040.50
702.56	1012.00
702.68	1001.50
702.80	1020.50
702.92	1113.50
703.04	1069.00
703.16	1023.00
703.28	1024.00
703.40	1010.00
703.52	1029.00
703.64	1037.00
703.76	1033.50
703.88	1004.50
704.00	992.50
704.12	999.50
704.24	1071.50
704.36	1020.50
704.48	1029.00
704.60	978.00
704.72	1012.00
704.84	1015.50
704.96	1041.00
705.07	1024.00
705.19	969.50
705.31	1015.50
705.43	1039.50
705.55	990.00
705.67	1047.50
705.79	1035.50
705.91	954.50
706.03	1009.00
706.15	1023.00
706.27	1008.00
706.39	1006.00
706.51	992.50
706.63	1003.50
706.75	1040.50
706.87	1024.50
706.99	1080.50
707.11	1022.50
707.23	1005.50
707.35	1021.50
707.47	1003.00
707.59	1047.00
707.71	1046.50
707.83	1004.00
707.95	1051.00
708.07	1014.50
708.19	1147.00
708.31	1034.00
708.43	994.50
708.55	1042.50
708.67	1092.00
708.79	1021.00
708.91	1049.50
709.03	1029.00
709.15	1067.00
709.27	994.50
709.39	1029.00
709.51	1007.50
709.63	1052.00
709.75	1027.00
709.87	969.00
709.99	1056.00
710.11	988.50
710.23	980.00
710.35	971.50
710.47	1127.50
710.58	1104.50
710.70	1064.50
710.82	1070.00
710.94	1026.00
711.06	1011.00
711.18	1016.00
711.30	1007.00
711.42	1071.00
711.54	1019.50
711.66	1042.00
711.78	996.50
711.90	1065.50
712.02	1109.00
712.14	994.50
712.26	966.00
712.38	1075.50
712.50	1094.00
712.62	1008.00
712.74	1009.00
712.86	1009.00
712.98	1070.50
713.10	1025.00
713.22	993.00
713.34	1023.00
713.45	1004.00
713.57	1025.50
713.69	987.50
713.81	1018.00
713.93	1053.00
714.05	1012.50
714.17	982.00
714.29	1090.00
714.41	1098.00
714.53	1008.50
714.65	1033.00
714.77	1031.00
714.89	981.00
715.01	1070.50
715.13	989.00
715.25	1029.00
715.37	1001.00
715.49	972.00
715.61	1028.00
715.72	1040.00
715.84	1073.00
715.96	1021.50
716.08	1020.50
716.20	1101.50
716.32	1073.00
716.44	1017.00
716.56	1023.50
716.68	1036.00
716.80	1122.00
716.92	1083.50
717.04	1035.50
717.16	1046.00
717.28	1021.50
717.40	1013.00
717.52	1027.00
717.63	1011.00
717.75	1047.00
717.87	1028.00
717.99	1040.50
718.11	1009.00
718.23	1097.50
718.35	1044.00
718.47	1033.50
718.59	970.00
718.71	1012.00
718.83	1007.50
718.95	1055.50
719.07	989.50
719.19	1031.00
719.30	1008.50
719.42	1037.50
719.54	1025.50
719.66	1052.00
719.78	1031.00
719.90	949.50
720.02	1019.50
720.14	1047.00
720.26	1043.50
720.38	1042.00
720.50	1017.00
720.62	965.50
720.74	1030.00
720.85	1018.50
720.97	1102.00
721.09	1148.00
721.21	1028.50
721.33	1091.00
721.45	1042.00
721.57	1049.50
721.69	997.50
721.81	983.50
721.93	1105.50
722.05	1043.50
722.16	993.50
722.28	969.50
722.40	1009.50
722.52	1095.50
722.64	1095.50
722.76	998.50
722.88	1063.00
723.00	1066.00
723.12	1019.00
723.24	1041.50
723.36	979.00
723.47	1074.50
723.59	1037.50
723.71	1026.50
723.83	1049.00
723.95	1012.50
724.07	1032.00
724.19	1043.50
724.31	1120.00
724.43	1009.00
724.55	970.00
724.66	989.50
724.78	1195.00
724.90	1001.00
725.02	1000.50
725.14	995.50
725.26	1042.50
725.38	964.50
725.50	1023.00
725.62	1040.50
725.74	1026.00
725.85	1034.50
725.97	1043.00
726.09	1096.00
726.21	1367.00
726.33	1071.50
726.45	1010.00
726.57	993.00
726.69	1043.00
726.81	1037.50
726.92	1031.50
727.04	1043.00
727.16	1065.50
727.28	1030.00
727.40	1025.00
727.52	1041.00
727.64	1174.00
727.76	1134.00
727.88	1051.00
727.99	1008.00
728.11	1008.00
728.23	1033.50
728.35	1016.50
728.47	1004.50
728.59	1028.00
728.71	1050.00
728.83	1040.00
728.94	1046.50
729.06	1141.00
729.18	1108.50
729.30	1059.50
729.42	1034.50
729.54	1122.00
729.66	1141.00
729.78	1041.00
729.90	1059.50
730.01	1021.00
730.13	964.00
730.25	1020.00
730.37	1015.00
730.49	1049.50
730.61	1053.00
730.73	1057.50
730.84	1069.00
730.96	1068.50
731.08	1051.00
731.20	1045.50
731.32	1055.50
731.44	1197.00
731.56	1044.00
731.68	1003.00
731.79	1044.00
731.91	1011.00
732.03	1023.00
732.15	1023.00
732.27	999.50
732.39	1016.00
732.51	1094.50
732.62	1012.00
732.74	1041.00
732.86	1105.00
732.98	1058.00
733.10	1024.00
733.22	1051.00
733.34	1084.00
733.45	993.00
733.57	1027.50
733.69	997.00
733.81	1023.50
733.93	1049.50
734.05	967.00
734.17	1029.00
734.28	1047.00
734.40	1040.50
734.52	1036.00
734.64	1026.50
734.76	1115.50
734.88	1063.00
735.00	1013.00
735.11	1025.00
735.23	1102.50
735.35	1032.00
735.47	977.50
735.59	1070.50
735.71	1033.00
735.83	1030.50
735.94	1056.00
736.06	1054.00
736.18	1107.00
736.30	1095.00
736.42	1067.50
736.54	1052.00
736.65	1096.00
736.77	1205.50
736.89	1091.50
737.01	1053.00
737.13	1143.00
737.25	982.00
737.36	1016.00
737.48	1037.00
737.60	1040.50
737.72	1014.50
737.84	1042.00
737.96	1070.50
738.08	1050.00
738.19	1143.50
738.31	1036.00
738.43	1037.50
738.55	1055.50
738.67	1063.50
738.79	1019.00
738.90	1042.50
739.02	1055.00
739.14	1028.50
739.26	1046.00
739.38	1037.50
739.50	1082.50
739.61	1054.50
739.73	1045.00
739.85	1037.50
739.97	1053.50
740.09	1105.50
740.20	988.50
740.32	1050.00
740.44	1077.00
740.56	1008.50
740.68	1027.50
740.80	1037.00
740.91	1039.50
741.03	1100.00
741.15	1064.00
741.27	1033.00
741.39	1094.00
741.51	1064.50
741.62	1102.50
741.74	1059.50
741.86	1042.00
741.98	1011.00
742.10	1055.50
742.21	1061.00
742.33	1048.50
742.45	1005.50
742.57	1100.50
742.69	1020.50
742.80	1086.00
742.92	1054.00
743.04	1043.00
743.16	1040.00
743.28	1116.50
743.40	1016.00
743.51	1013.50
743.63	1005.50
743.75	1056.50
743.87	1053.50
743.99	1063.50
744.10	1040.00
744.22	1039.50
744.34	1030.00
744.46	1050.00
744.58	1046.00
744.69	977.00
744.81	1065.50
744.93	1013.00
745.05	1000.50
745.17	1134.00
745.28	1132.50
745.40	1069.50
745.52	1034.00
745.64	1056.50
745.76	1085.50
745.87	1041.50
745.99	1025.50
746.11	1061.50
746.23	1023.00
746.35	1054.00
746.46	1036.50
746.58	1155.00
746.70	1048.50
746.82	1042.50
746.94	1045.00
747.05	1022.50
747.17	1003.00
747.29	1003.50
747.41	1032.00
747.53	1189.50
747.64	1038.50
747.76	1093.00
747.88	1090.00
748.00	1083.50
748.12	1053.00
748.23	1032.50
748.35	1063.50
748.47	1079.50
748.59	1102.00
748.70	1033.50
748.82	1012.50
748.94	1016.00
749.06	1024.50
749.18	1043.00
749.29	1018.50
749.41	1059.00
749.53	1055.50
749.65	1044.00
749.76	1080.50
749.88	1049.50
750.00	1064.50
750.12	1084.00
750.24	1065.50
750.35	1055.00
750.47	1014.00
750.59	1065.50
750.71	1039.50
750.82	1082.50
750.94	1025.00
751.06	1033.00
751.18	1023.00
751.30	1068.00
751.41	1078.00
751.53	1070.00
751.65	1018.50
751.77	1025.00
751.88	1060.50
752.00	1082.50
752.12	995.50
752.24	1103.50
752.35	1075.50
752.47	1086.50
752.59	1087.00
752.71	1138.50
752.83	1032.00
752.94	1105.00
753.06	1018.50
753.18	1060.50
753.30	1034.50
753.41	983.50
753.53	1028.50
753.65	1027.50
753.77	1099.50
753.88	1017.50
754.00	1046.00
754.12	1070.00
754.24	1114.00
754.35	1018.00
754.47	980.50
754.59	1075.00
754.71	1067.50
754.82	1047.00
754.94	1025.50
755.06	1103.50
755.18	1063.50
755.29	1066.00
755.41	1028.50
755.53	1059.00
755.65	1013.50
755.76	1062.00
755.88	1045.00
756.00	1109.00
756.12	1023.00
756.23	950.00
756.35	992.50
756.47	1094.50
756.59	1026.50
756.70	1026.50
756.82	1016.50
756.94	1029.00
757.06	1071.50
757.17	1055.00
757.29	1027.50
757.41	995.00
757.53	1064.50
757.64	1044.50
757.76	1045.50
757.88	1059.00
758.00	1074.00
758.11	1034.50
758.23	1017.00
758.35	1069.00
758.47	1017.00
758.58	1049.00
758.70	986.00
758.82	1008.50
758.94	998.50
759.05	1042.00
759.17	999.00
759.29	1031.50
759.40	1116.00
759.52	1030.00
759.64	1026.50
759.76	1052.00
759.87	1061.50
759.99	1049.50
760.11	1009.50
760.23	1053.00
760.34	1085.50
760.46	1070.50
760.58	1031.00
760.70	1047.00
760.81	1106.50
760.93	1050.50
761.05	1061.50
761.16	1047.50
761.28	1032.50
761.40	1012.00
761.52	1011.00
761.63	1098.50
761.75	1053.50
761.87	1029.00
761.98	979.50
762.10	1063.00
762.22	1044.50
762.34	1063.00
762.45	1015.00
762.57	1081.50
762.69	1167.50
762.81	1027.50
762.92	1051.00
763.04	979.50
763.16	1062.50
763.27	1086.50
763.39	1017.50
763.51	1071.50
763.63	1078.50
763.74	1022.00
763.86	978.50
763.98	1016.50
764.09	1030.50
764.21	1039.00
764.33	983.50
764.44	1013.50
764.56	1038.50
764.68	999.00
764.80	1032.00
764.91	971.00
765.03	1090.50
765.15	1017.00
765.26	1023.00
765.38	988.00
765.50	1074.50
765.62	1045.50
765.73	1029.50
765.85	1047.50
765.97	997.00
766.08	1035.00
766.20	1029.50
766.32	1045.50
766.43	1086.50
766.55	1069.50
766.67	1017.50
766.79	1024.50
766.90	1003.00
767.02	952.50
767.14	978.00
767.25	980.00
767.37	1142.50
767.49	1061.50
767.60	1021.50
767.72	1081.50
767.84	1079.50
767.95	1019.50
768.07	1000.50
768.19	1063.00
768.31	1066.00
768.42	1053.50
768.54	1017.50
768.66	1043.50
768.77	1070.00
768.89	1030.50
769.01	1008.50
769.12	1050.00
769.24	1047.00
769.36	986.50
769.47	980.50
769.59	982.00
769.71	1061.50
769.82	1033.00
769.94	1017.50
770.06	981.50
770.17	1061.50
770.29	1038.00
770.41	1060.50
770.53	1058.00
770.64	989.50
770.76	1035.50
770.88	1051.50
770.99	1069.50
771.11	990.00
771.23	1028.00
771.34	1025.00
771.46	1122.50
771.58	1075.00
771.69	1068.00
771.81	1035.50
771.93	1068.00
772.04	998.50
772.16	1049.50
772.28	1015.00
772.39	1085.50
772.51	1016.50
772.63	1036.50
772.74	1013.00
772.86	1012.00
772.98	1146.50
773.09	987.50
773.21	1014.00
773.33	1051.00
773.44	1059.00
773.56	1014.50
773.68	1018.50
773.79	1074.50
773.91	1031.50
774.03	1041.00
774.14	1014.00
774.26	1100.50
774.38	986.50
774.49	970.00
774.61	1014.50
774.73	1028.50
774.84	1010.00
774.96	999.00
775.08	1021.00
775.19	1058.00
775.31	1087.50
775.43	1028.50
775.54	997.00
775.66	975.50
775.77	1071.50
775.89	987.50
776.01	1053.50
776.12	1080.00
776.24	1044.50
776.36	970.50
776.47	993.50
776.59	1041.00
776.71	1066.50
776.82	944.00
776.94	979.00
777.06	1014.00
777.17	1099.50
777.29	985.00
777.41	988.00
777.52	1058.50
777.64	1015.50
777.75	1055.00
777.87	957.50
777.99	999.00
778.10	1058.50
778.22	1012.00
778.34	1026.00
778.45	1009.50
778.57	1069.50
778.69	1067.50
778.80	1034.00
778.92	1126.00
779.04	1049.50
779.15	1017.50
779.27	1044.00
779.38	1051.00
779.50	1082.00
779.62	960.50
779.73	1007.00
779.85	957.50
779.97	1148.00
780.08	1033.50
780.20	1013.50
780.31	1052.50
780.43	1058.50
780.55	996.00
780.66	1019.50
780.78	1038.00
780.90	1131.00
781.01	977.00
781.13	1026.00
781.25	1002.50
781.36	1063.50
781.48	990.50
781.59	1002.50
781.71	1041.50
781.83	1030.00
781.94	978.00
782.06	983.00
782.18	1058.50
782.29	981.00
782.41	964.50
782.52	1046.50
782.64	1058.50
782.76	1036.50
782.87	1039.00
782.99	1001.50
783.10	1145.50
783.22	1169.50
783.34	1029.00
783.45	1020.00
783.57	1024.50
783.69	994.00
783.80	1033.00
783.92	1037.50
784.03	1000.50
784.15	979.00
784.27	1010.50
784.38	1012.00
784.50	984.00
784.61	1024.50
784.73	986.50
784.85	991.50
784.96	995.00
785.08	1060.50
785.19	1052.00
785.31	1003.50
785.43	970.50
785.54	966.00
785.66	1022.50
785.77	998.50
785.89	1030.00
786.01	953.50
786.12	997.50
786.24	1030.50
786.35	1085.50
786.47	1030.00
786.59	989.00
786.70	972.00
786.82	1017.00
786.93	1030.00
787.05	1004.00
787.17	1002.50
787.28	997.00
787.40	1047.50
787.51	1029.00
787.63	1020.00
787.75	960.50
787.86	1034.00
787.98	1038.50
788.09	1002.50
788.21	1038.00
788.33	1048.00
788.44	1021.00
788.56	985.50
788.67	1036.50
788.79	987.50
788.91	997.00
789.02	992.00
789.14	994.50
789.25	1098.50
789.37	1023.00
789.48	977.50
789.60	1009.50
789.72	986.00
789.83	1021.50
789.95	1009.00
790.06	956.50
790.18	968.50
790.30	1052.00
790.41	1003.50
790.53	986.50
790.64	963.50
790.76	953.00
790.87	987.50
790.99	998.50
791.11	1005.00
791.22	978.00
791.34	991.50
791.45	1034.50
791.57	1049.50
791.68	976.00
791.80	963.00
791.92	1029.00
792.03	976.00
792.15	943.00
792.26	985.00
792.38	954.50
792.49	1034.50
792.61	999.50
792.73	1005.00
792.84	994.00
792.96	1112.50
793.07	980.50
793.19	1820.00
793.30	1091.00
793.42	1032.50
793.54	937.50
793.65	948.50
793.77	1137.00
793.88	990.50
794.00	955.00
794.11	983.00
794.23	920.50
794.34	1006.50
794.46	926.50
794.58	936.50
794.69	1089.00
794.81	1072.50
794.92	973.50
795.04	968.00
795.15	1083.50
795.27	1032.00
795.39	985.00
795.50	962.50
795.62	977.50
795.73	982.00
795.85	973.50
795.96	1006.00
796.08	1058.00
796.19	983.50
796.31	978.50
796.42	941.50
796.54	963.00
796.66	1036.50
796.77	943.00
796.89	930.50
797.00	1043.50
797.12	914.00
797.23	967.50
797.35	1003.00
797.46	1018.00
797.58	1043.50
797.69	998.50
797.81	963.50
797.93	981.00
798.04	964.00
798.16	953.00
798.27	985.00
798.39	962.00
798.50	945.50
798.62	949.50
798.73	939.50
798.85	1058.50
798.96	990.00
799.08	1018.50
799.19	1023.00
799.31	1002.50
799.43	985.00
799.54	956.00
799.66	991.50
799.77	1026.00
799.89	964.00
800.00	922.50
800.12	965.50
800.23	1033.00
800.35	1076.50
800.46	926.50
800.58	895.00
800.69	968.00
800.81	964.50
800.92	932.00
801.04	972.00
801.16	919.00
801.27	925.50
801.39	931.00
801.50	943.00
801.62	964.50
801.73	1024.00
801.85	1010.00
801.96	943.00
802.08	1041.50
802.19	1044.50
802.31	952.00
802.42	968.00
802.54	1062.50
802.65	1044.50
802.77	951.00
802.88	1005.00
803.00	921.00
803.11	1088.00
803.23	960.50
803.34	961.50
803.46	993.50
803.57	932.00
803.69	1010.50
803.80	918.00
803.92	1038.00
804.03	972.50
804.15	978.50
804.26	1005.50
804.38	1013.00
804.50	937.50
804.61	981.00
804.73	961.00
804.84	975.50
804.96	907.00
805.07	967.00
805.19	928.00
805.30	988.50
805.42	1021.00
805.53	971.00
805.65	938.00
805.76	919.50
805.88	961.00
805.99	981.50
806.11	986.00
806.22	944.50
806.34	950.00
806.45	953.00
806.57	940.50
806.68	1013.00
806.80	890.50
806.91	922.00
807.03	910.50
807.14	889.50
807.26	905.50
807.37	908.00
807.49	964.00
807.60	943.50
807.72	1045.50
807.83	1030.50
807.95	969.00
808.06	979.50
808.17	957.00
808.29	983.50
808.40	908.00
808.52	951.00
808.63	962.00
808.75	944.50
808.86	940.50
808.98	979.00
809.09	911.50
809.21	967.50
809.32	921.50
809.44	977.00
809.55	897.50
809.67	947.00
809.78	911.00
809.90	987.50
810.01	999.50
810.13	910.50
810.24	957.00
810.36	878.50
810.47	975.00
810.59	948.50
810.70	959.50
810.82	994.50
810.93	896.00
811.05	897.00
811.16	917.00
811.27	909.00
811.39	937.00
811.50	973.00
811.62	861.00
811.73	873.50
811.85	951.50
811.96	931.00
812.08	954.50
812.19	929.50
812.31	955.50
812.42	919.50
812.54	898.50
812.65	965.50
812.77	972.50
812.88	959.50
813.00	962.00
813.11	961.00
813.22	901.50
813.34	901.50
813.45	920.00
813.57	1004.50
813.68	1014.00
813.80	936.50
813.91	895.50
814.03	916.00
814.14	1024.00
814.26	903.00
814.37	904.00
814.49	916.00
814.60	892.00
814.71	888.50
814.83	901.00
814.94	870.00
815.06	908.50
815.17	902.50
815.29	906.00
815.40	875.50
815.52	1011.50
815.63	901.00
815.75	870.50
815.86	916.50
815.97	869.00
816.09	904.00
816.20	919.50
816.32	918.00
816.43	852.00
816.55	916.00
816.66	872.00
816.78	999.00
816.89	920.00
817.00	898.50
817.12	871.00
817.23	858.50
817.35	956.50
817.46	898.50
817.58	864.00
817.69	990.00
817.81	895.00
817.92	927.00
818.03	906.00
818.15	896.50
818.26	861.00
818.38	839.50
818.49	883.50
818.61	901.50
818.72	855.00
818.83	1959.50
818.95	1030.50
819.06	864.00
819.18	869.00
819.29	902.00
819.41	876.50
819.52	892.00
819.64	907.50
819.75	847.00
819.86	841.00
819.98	880.00
820.09	913.50
820.21	872.00
820.32	839.50
820.44	901.50
820.55	940.50
820.66	856.50
820.78	912.50
820.89	887.00
821.01	901.00
821.12	883.00
821.23	891.00
821.35	864.00
821.46	938.00
821.58	871.50
821.69	856.50
821.81	855.50
821.92	942.00
822.03	866.00
822.15	889.50
822.26	844.00
822.38	842.50
822.49	877.00
822.61	870.50
822.72	878.00
822.83	928.00
822.95	853.50
823.06	863.00
823.18	914.50
823.29	933.00
823.40	895.50
823.52	858.00
823.63	822.50
823.75	963.50
823.86	863.50
823.97	805.00
824.09	900.00
824.20	831.00
824.32	865.00
824.43	848.50
824.55	910.00
824.66	966.50
824.77	859.00
824.89	867.50
825.00	916.50
825.12	863.50
825.23	889.50
825.34	815.00
825.46	816.50
825.57	906.00
825.69	845.00
825.80	785.50
825.91	820.00
826.03	797.50
826.14	877.00
826.26	813.00
826.37	858.50
826.48	826.00
826.60	845.00
826.71	824.00
826.83	853.50
826.94	868.00
827.05	889.00
827.17	890.50
827.28	848.50
827.39	826.50
827.51	806.00
827.62	837.50
827.74	862.50
827.85	828.00
827.96	811.50
828.08	826.00
828.19	946.50
828.31	843.00
828.42	781.50
828.53	862.50
828.65	898.00
828.76	901.50
828.87	854.00
828.99	813.00
