Wavelength (nm)	Intensity
377.35	820.25
377.48	602.12
377.62	601.00
377.75	622.25
377.88	849.75
378.02	827.62
378.15	826.38
378.28	797.88
378.41	878.25
378.55	845.25
378.68	826.62
378.81	805.38
378.95	844.00
379.08	835.00
379.21	794.50
379.35	848.00
379.48	856.12
379.61	922.75
379.74	833.12
379.88	804.75
380.01	894.88
380.14	955.50
380.28	874.75
380.41	792.88
380.54	849.62
380.68	866.62
380.81	775.88
380.94	856.00
381.07	913.62
381.21	913.75
381.34	828.50
381.47	767.12
381.61	980.12
381.74	839.38
381.87	792.25
382.00	851.88
382.14	927.38
382.27	881.25
382.40	798.88
382.54	892.25
382.67	905.62
382.80	803.75
382.93	798.88
383.07	825.88
383.20	835.88
383.33	875.62
383.47	803.62
383.60	790.50
383.73	987.75
383.86	873.88
384.00	826.62
384.13	815.12
384.26	871.25
384.40	887.88
384.53	837.62
384.66	871.12
384.79	849.88
384.93	823.25
385.06	821.38
385.19	848.75
385.33	963.62
385.46	870.12
385.59	805.12
385.72	843.62
385.86	794.88
385.99	827.88
386.12	818.75
386.25	795.62
386.39	879.12
386.52	897.00
386.65	828.75
386.79	820.62
386.92	820.75
387.05	928.88
387.18	787.50
387.32	798.12
387.45	868.88
387.58	851.25
387.71	815.50
387.85	811.88
387.98	858.62
388.11	879.50
388.25	846.88
388.38	826.75
388.51	877.38
388.64	881.88
388.78	812.88
388.91	788.25
389.04	833.88
389.17	953.38
389.31	841.62
389.44	867.75
389.57	909.25
389.70	866.00
389.84	813.00
389.97	808.25
390.10	816.50
390.24	869.38
390.37	819.25
390.50	807.75
390.63	911.25
390.77	835.75
390.90	838.12
391.03	833.25
391.16	792.12
391.30	823.75
391.43	815.50
391.56	813.00
391.69	808.62
391.83	894.38
391.96	846.25
392.09	815.38
392.22	933.38
392.36	864.62
392.49	799.25
392.62	823.38
392.75	864.62
392.89	912.25
393.02	799.38
393.15	800.50
393.28	787.50
393.42	934.88
393.55	785.50
393.68	807.25
393.81	772.50
393.95	827.62
394.08	813.12
394.21	811.38
394.34	882.62
394.48	873.38
394.61	866.75
394.74	840.00
394.87	889.88
395.01	861.75
395.14	858.62
395.27	808.00
395.40	939.12
395.54	945.00
395.67	843.88
395.80	824.62
395.93	872.75
396.07	821.88
396.20	808.38
396.33	766.62
396.46	819.75
396.59	833.62
396.73	820.88
396.86	795.00
396.99	899.50
397.12	856.12
397.26	840.50
397.39	826.25
397.52	1158.00
397.65	951.62
397.79	836.12
397.92	821.62
398.05	897.38
398.18	824.12
398.32	827.38
398.45	862.88
398.58	862.50
398.71	872.75
398.84	794.00
398.98	831.62
399.11	873.88
399.24	865.00
399.37	824.88
399.51	797.38
399.64	838.88
399.77	849.25
399.90	829.50
400.03	832.75
400.17	798.12
400.30	905.88
400.43	867.50
400.56	835.50
400.70	839.75
400.83	813.25
400.96	800.00
401.09	834.25
401.23	851.12
401.36	911.38
401.49	818.75
401.62	836.62
401.75	833.75
401.89	808.50
402.02	830.62
402.15	831.12
402.28	859.62
402.41	856.25
402.55	811.38
402.68	819.38
402.81	918.50
402.94	880.50
403.08	808.75
403.21	791.00
403.34	880.12
403.47	874.75
403.60	815.50
403.74	858.38
403.87	885.75
404.00	815.38
404.13	808.00
404.26	784.88
404.40	803.00
404.53	852.25
404.66	826.50
404.79	793.38
404.93	880.00
405.06	851.88
405.19	783.62
405.32	835.25
405.45	861.75
405.59	882.25
405.72	830.75
405.85	795.50
405.98	1019.25
406.11	812.38
406.25	804.38
406.38	825.25
406.51	872.75
406.64	835.12
406.77	785.00
406.91	792.75
407.04	867.50
407.17	835.75
407.30	848.62
407.43	824.62
407.57	923.00
407.70	907.38
407.83	806.25
407.96	825.38
408.09	804.50
408.23	933.00
408.36	828.00
408.49	811.50
408.62	958.38
408.75	847.50
408.89	808.75
409.02	847.50
409.15	842.50
409.28	925.00
409.41	864.50
409.55	809.88
409.68	962.50
409.81	864.75
409.94	811.62
410.07	840.12
410.20	851.12
410.34	834.00
410.47	834.88
410.60	845.00
410.73	884.38
410.86	818.50
411.00	837.00
411.13	803.12
411.26	850.62
411.39	847.12
411.52	853.38
411.66	816.62
411.79	827.00
411.92	815.00
412.05	829.88
412.18	827.00
412.31	863.25
412.45	875.38
412.58	869.25
412.71	797.12
412.84	862.88
412.97	925.50
413.11	841.75
413.24	849.00
413.37	885.62
413.50	950.50
413.63	855.25
413.76	818.50
413.90	876.50
414.03	829.75
414.16	823.00
414.29	853.75
414.42	849.00
414.56	960.75
414.69	816.38
414.82	831.25
414.95	844.75
415.08	862.00
415.21	838.25
415.35	845.38
415.48	767.12
415.61	891.62
415.74	891.50
415.87	799.25
416.00	862.00
416.14	968.50
416.27	843.00
416.40	809.75
416.53	844.38
416.66	873.75
416.79	842.88
416.93	801.12
417.06	903.62
417.19	855.75
417.32	829.00
417.45	812.75
417.58	796.00
417.72	899.75
417.85	814.50
417.98	829.50
418.11	883.38
418.24	828.38
418.37	816.88
418.51	836.25
418.64	844.75
418.77	926.88
418.90	853.12
419.03	797.62
419.16	854.75
419.29	883.88
419.43	817.12
419.56	794.75
419.69	955.50
419.82	898.75
419.95	836.00
420.08	875.00
420.22	914.62
420.35	973.00
420.48	873.88
420.61	825.12
420.74	789.62
420.87	885.12
421.00	802.75
421.14	824.88
421.27	889.00
421.40	923.25
421.53	849.62
421.66	830.75
421.79	842.38
421.93	848.25
422.06	834.00
422.19	810.50
422.32	889.88
422.45	891.12
422.58	842.62
422.71	816.25
422.85	891.88
422.98	894.62
423.11	795.50
423.24	792.88
423.37	810.25
423.50	815.25
423.63	835.38
423.77	804.88
423.90	811.38
424.03	869.12
424.16	862.12
424.29	835.12
424.42	787.75
424.55	811.88
424.69	802.50
424.82	835.12
424.95	859.50
425.08	819.88
425.21	857.62
425.34	821.75
425.47	849.25
425.60	864.12
425.74	790.75
425.87	822.62
426.00	846.50
426.13	863.12
426.26	810.38
426.39	807.00
426.52	838.25
426.66	913.75
426.79	864.00
426.92	807.38
427.05	949.00
427.18	908.25
427.31	835.50
427.44	829.25
427.57	813.75
427.71	842.88
427.84	797.25
427.97	836.50
428.10	910.00
428.23	845.50
428.36	824.62
428.49	749.00
428.62	977.62
428.76	948.12
428.89	854.88
429.02	795.12
429.15	838.00
429.28	937.38
429.41	819.38
429.54	825.50
429.67	823.38
429.81	870.75
429.94	834.50
430.07	816.38
430.20	892.38
430.33	919.50
430.46	804.12
430.59	801.62
430.72	839.62
430.85	794.00
430.99	821.38
431.12	805.62
431.25	903.12
431.38	920.25
431.51	842.12
431.64	838.75
431.77	926.75
431.90	922.00
432.03	839.88
432.17	807.38
432.30	853.75
432.43	874.38
432.56	842.38
432.69	866.38
432.82	855.38
432.95	902.00
433.08	836.38
433.21	837.25
433.35	835.50
433.48	842.75
433.61	800.25
433.74	826.88
433.87	815.50
434.00	886.50
434.13	815.88
434.26	863.00
434.39	869.62
434.53	879.25
434.66	825.88
434.79	824.25
434.92	828.88
435.05	918.75
435.18	818.12
435.31	857.12
435.44	909.88
435.57	849.50
435.70	834.00
435.84	799.50
435.97	923.75
436.10	976.62
436.23	819.12
436.36	801.25
436.49	824.38
436.62	867.50
436.75	831.62
436.88	859.50
437.01	818.00
437.14	813.88
437.28	789.75
437.41	814.62
437.54	906.25
437.67	887.12
437.80	823.38
437.93	792.25
438.06	970.50
438.19	904.88
438.32	810.38
438.45	806.75
438.58	872.12
438.72	928.62
438.85	884.25
438.98	827.38
439.11	870.88
439.24	920.25
439.37	900.38
439.50	864.00
439.63	904.88
439.76	836.50
439.89	810.88
440.02	823.38
440.15	877.25
440.29	919.88
440.42	842.25
440.55	834.88
440.68	931.25
440.81	988.50
440.94	849.00
441.07	841.50
441.20	952.75
441.33	857.50
441.46	827.62
441.59	812.88
441.72	840.12
441.85	863.12
441.99	879.50
442.12	873.88
442.25	941.12
442.38	880.00
442.51	858.75
442.64	799.88
442.77	855.00
442.90	837.62
443.03	797.88
443.16	826.50
443.29	857.88
443.42	922.38
443.55	826.25
443.68	839.12
443.82	801.62
443.95	830.88
444.08	827.50
444.21	833.75
444.34	821.88
444.47	842.38
444.60	836.88
444.73	848.00
444.86	849.00
444.99	930.62
445.12	867.62
445.25	846.62
445.38	862.50
445.51	896.88
445.64	852.50
445.78	813.88
445.91	787.62
446.04	967.62
446.17	885.12
446.30	784.25
446.43	877.88
446.56	857.12
446.69	809.25
446.82	814.50
446.95	895.25
447.08	903.38
447.21	847.00
447.34	822.88
447.47	905.12
447.60	899.00
447.73	846.00
447.86	876.88
447.99	859.00
448.13	866.88
448.26	887.62
448.39	835.00
448.52	886.88
448.65	888.50
448.78	837.38
448.91	830.12
449.04	881.12
449.17	832.25
449.30	861.25
449.43	847.25
449.56	851.50
449.69	915.88
449.82	839.50
449.95	793.38
450.08	904.00
450.21	884.00
450.34	838.12
450.47	841.12
450.60	890.38
450.73	856.88
450.87	833.00
451.00	856.38
451.13	891.38
451.26	1020.88
451.39	831.25
451.52	863.62
451.65	846.38
451.78	837.12
451.91	829.50
452.04	819.38
452.17	942.25
452.30	945.00
452.43	830.75
452.56	829.75
452.69	905.88
452.82	820.38
452.95	878.50
453.08	814.38
453.21	777.00
453.34	900.62
453.47	824.12
453.60	892.25
453.73	953.75
453.86	892.25
453.99	865.38
454.12	858.75
454.25	842.62
454.38	868.88
454.52	812.50
454.65	828.88
454.78	832.38
454.91	794.50
455.04	823.75
455.17	806.12
455.30	823.00
455.43	913.50
455.56	834.25
455.69	800.75
455.82	880.25
455.95	869.75
456.08	810.62
456.21	800.00
456.34	795.88
456.47	794.00
456.60	825.00
456.73	815.25
456.86	843.75
456.99	876.38
457.12	819.88
457.25	838.50
457.38	916.12
457.51	888.88
457.64	852.38
457.77	823.25
457.90	844.50
458.03	838.88
458.16	836.50
458.29	837.25
458.42	845.50
458.55	796.00
458.68	810.12
458.81	837.38
458.94	917.88
459.07	964.38
459.20	812.88
459.33	820.12
459.46	923.38
459.59	957.75
459.72	914.75
459.85	836.62
459.98	934.00
460.11	887.75
460.24	847.75
460.37	803.00
460.50	896.88
460.63	860.75
460.76	830.88
460.89	850.38
461.02	873.38
461.15	896.62
461.28	847.25
461.41	832.62
461.54	932.50
461.67	821.75
461.80	849.50
461.93	897.12
462.06	879.38
462.19	914.75
462.32	838.00
462.45	824.00
462.58	889.62
462.71	844.12
462.84	840.50
462.97	786.00
463.10	840.88
463.23	865.88
463.36	877.38
463.49	855.50
463.62	799.62
463.75	873.12
463.88	829.00
464.01	845.25
464.14	809.88
464.27	946.62
464.40	836.62
464.53	839.88
464.66	885.25
464.79	880.25
464.92	853.50
465.05	816.12
465.18	850.62
465.31	855.62
465.44	841.25
465.57	823.50
465.70	840.50
465.83	972.25
465.96	858.12
466.09	825.00
466.22	901.88
466.35	885.12
466.48	829.00
466.61	834.38
466.74	853.00
466.87	904.50
467.00	881.12
467.13	868.88
467.26	894.75
467.39	808.75
467.52	806.00
467.65	835.50
467.78	926.50
467.91	853.38
468.04	854.50
468.17	823.50
468.30	840.75
468.43	804.88
468.56	822.38
468.69	868.25
468.82	893.38
468.95	817.12
469.08	839.00
469.21	840.12
469.34	894.00
469.47	977.62
469.60	941.25
469.73	858.88
469.86	874.25
469.99	905.75
470.11	829.75
470.24	835.38
470.37	899.00
470.50	864.38
470.63	831.00
470.76	845.75
470.89	898.62
471.02	977.12
471.15	842.00
471.28	843.25
471.41	965.88
471.54	892.50
471.67	841.50
471.80	788.25
471.93	908.38
472.06	882.88
472.19	841.88
472.32	825.12
472.45	976.12
472.58	910.75
472.71	864.25
472.84	837.00
472.97	835.75
473.10	814.12
473.23	895.75
473.36	807.38
473.49	934.88
473.62	907.12
473.74	879.25
473.87	902.12
474.00	830.88
474.13	840.25
474.26	868.38
474.39	884.75
474.52	863.62
474.65	847.75
474.78	866.12
474.91	810.62
475.04	887.12
475.17	990.38
475.30	884.25
475.43	871.62
475.56	923.00
475.69	872.00
475.82	892.38
475.95	828.25
476.08	940.38
476.21	879.25
476.34	900.62
476.46	894.00
476.59	934.00
476.72	854.00
476.85	850.38
476.98	826.12
477.11	926.62
477.24	874.62
477.37	807.12
477.50	841.75
477.63	875.75
477.76	842.62
477.89	802.75
478.02	824.12
478.15	873.88
478.28	863.00
478.41	883.50
478.54	846.62
478.66	915.25
478.79	865.50
478.92	858.00
479.05	864.88
479.18	881.25
479.31	841.12
479.44	834.50
479.57	830.25
479.70	853.12
479.83	879.38
479.96	853.12
480.09	881.00
480.22	1005.12
480.35	993.38
480.48	922.25
480.60	882.00
480.73	857.38
480.86	901.50
480.99	857.12
481.12	857.62
481.25	876.50
481.38	952.25
481.51	859.38
481.64	871.75
481.77	907.75
481.90	869.75
482.03	861.75
482.16	853.38
482.29	944.25
482.41	884.75
482.54	895.62
482.67	846.50
482.80	880.12
482.93	933.88
483.06	843.25
483.19	935.00
483.32	915.12
483.45	875.00
483.58	885.50
483.71	898.12
483.84	923.00
483.97	915.50
484.09	876.50
484.22	858.25
484.35	847.00
484.48	823.88
484.61	850.25
484.74	860.62
484.87	900.62
485.00	839.00
485.13	889.25
485.26	838.75
485.39	907.62
485.52	875.38
485.64	942.50
485.77	899.00
485.90	929.38
486.03	846.00
486.16	895.25
486.29	843.88
486.42	881.00
486.55	896.62
486.68	866.25
486.81	902.12
486.94	902.88
487.06	874.25
487.19	901.88
487.32	902.25
487.45	890.38
487.58	864.12
487.71	878.25
487.84	835.12
487.97	920.88
488.10	938.38
488.23	861.50
488.35	827.00
488.48	881.88
488.61	836.25
488.74	847.12
488.87	855.38
489.00	897.12
489.13	985.00
489.26	916.62
489.39	915.62
489.52	927.12
489.64	917.00
489.77	894.12
489.90	891.75
490.03	892.62
490.16	868.88
490.29	865.38
490.42	855.00
490.55	897.12
490.68	861.88
490.81	875.62
490.93	832.88
491.06	957.75
491.19	916.50
491.32	896.75
491.45	911.25
491.58	856.62
491.71	896.00
491.84	870.62
491.97	867.00
492.09	956.25
492.22	915.50
492.35	896.25
492.48	925.50
492.61	909.75
492.74	898.00
492.87	906.00
493.00	883.00
493.12	863.12
493.25	896.38
493.38	885.12
493.51	855.88
493.64	849.38
493.77	898.75
493.90	904.00
494.03	909.50
494.16	959.00
494.28	970.75
494.41	881.88
494.54	892.62
494.67	1021.38
494.80	977.75
494.93	892.50
495.06	906.00
495.19	927.38
495.31	903.12
495.44	875.50
495.57	858.75
495.70	919.12
495.83	890.00
495.96	858.00
496.09	900.38
496.22	979.00
496.34	996.50
496.47	894.50
496.60	919.38
496.73	952.50
496.86	945.38
496.99	868.00
497.12	902.00
497.24	838.88
497.37	900.62
497.50	884.38
497.63	864.50
497.76	891.25
497.89	969.50
498.02	924.38
498.15	819.25
498.27	903.25
498.40	955.88
498.53	974.12
498.66	913.12
498.79	950.88
498.92	862.75
499.05	909.38
499.17	898.38
499.30	933.50
499.43	997.50
499.56	920.50
499.69	851.38
499.82	922.50
499.95	893.12
500.07	875.88
500.20	901.50
500.33	950.62
500.46	1057.12
500.59	906.62
500.72	914.00
500.85	965.12
500.97	961.38
501.10	952.38
501.23	866.25
501.36	916.75
501.49	985.00
501.62	929.62
501.75	906.75
501.87	967.38
502.00	860.75
502.13	927.25
502.26	916.62
502.39	889.38
502.52	890.88
502.64	854.12
502.77	878.38
502.90	943.38
503.03	912.25
503.16	881.38
503.29	877.38
503.42	968.62
503.54	926.38
503.67	910.25
503.80	911.38
503.93	960.88
504.06	873.12
504.19	899.00
504.31	968.12
504.44	927.88
504.57	935.12
504.70	915.25
504.83	862.75
504.96	939.12
505.08	907.50
505.21	913.00
505.34	1022.25
505.47	980.12
505.60	955.12
505.73	962.12
505.85	959.12
505.98	1060.00
506.11	912.75
506.24	881.25
506.37	879.62
506.50	926.25
506.62	969.00
506.75	897.62
506.88	887.38
507.01	934.75
507.14	873.88
507.27	906.50
507.39	867.62
507.52	893.62
507.65	905.62
507.78	926.62
507.91	876.25
508.04	989.00
508.16	979.62
508.29	929.88
508.42	901.25
508.55	878.62
508.68	894.62
508.81	954.25
508.93	897.38
509.06	901.00
509.19	963.12
509.32	946.75
509.45	926.00
509.57	952.75
509.70	885.88
509.83	914.88
509.96	868.75
510.09	923.75
510.22	919.12
510.34	925.88
510.47	910.50
510.60	1027.38
510.73	941.88
510.86	939.12
510.98	909.00
511.11	908.00
511.24	982.50
511.37	950.88
511.50	907.62
511.63	938.12
511.75	932.75
511.88	914.38
512.01	941.00
512.14	935.12
512.27	942.75
512.39	923.12
512.52	906.62
512.65	935.62
512.78	899.62
512.91	932.50
513.03	921.25
513.16	971.25
513.29	939.62
513.42	915.88
513.55	879.88
513.67	945.38
513.80	871.88
513.93	900.50
514.06	905.25
514.19	943.75
514.31	943.75
514.44	965.00
514.57	915.75
514.70	937.50
514.83	989.12
514.95	905.25
515.08	940.38
515.21	964.62
515.34	929.50
515.47	928.12
515.59	901.75
515.72	952.00
515.85	955.75
515.98	978.50
516.11	932.75
516.23	973.50
516.36	1004.50
516.49	953.62
516.62	934.00
516.75	997.88
516.87	999.62
517.00	905.50
517.13	948.88
517.26	994.12
517.39	961.88
517.51	875.62
517.64	932.50
517.77	1014.75
517.90	902.12
518.02	923.88
518.15	897.38
518.28	857.00
518.41	929.25
518.54	934.25
518.66	936.00
518.79	894.38
518.92	914.25
519.05	905.00
519.18	914.38
519.30	966.00
519.43	893.62
519.56	904.38
519.69	913.00
519.81	991.00
519.94	925.50
520.07	867.50
520.20	908.62
520.33	943.50
520.45	1007.50
520.58	943.00
520.71	956.12
520.84	988.25
520.96	960.50
521.09	933.62
521.22	908.62
521.35	979.00
521.48	971.50
521.60	906.12
521.73	931.50
521.86	1003.38
521.99	1025.38
522.11	950.50
522.24	930.25
522.37	968.50
522.50	957.50
522.62	995.62
522.75	881.88
522.88	954.88
523.01	924.25
523.14	960.88
523.26	952.38
523.39	1023.00
523.52	923.00
523.65	1041.12
523.77	973.25
523.90	954.75
524.03	931.88
524.16	927.75
524.28	924.00
524.41	939.62
524.54	944.00
524.67	898.00
524.79	925.12
524.92	973.75
525.05	1021.38
525.18	905.50
525.31	973.50
525.43	914.50
525.56	1065.88
525.69	926.25
525.82	872.50
525.94	989.25
526.07	991.12
526.20	977.50
526.33	979.88
526.45	1071.00
526.58	1051.25
526.71	964.50
526.84	936.00
526.96	958.75
527.09	916.25
527.22	931.62
527.35	935.75
527.47	897.12
527.60	1022.62
527.73	906.38
527.86	966.00
527.98	972.25
528.11	978.75
528.24	901.62
528.37	931.50
528.49	908.00
528.62	953.50
528.75	975.75
528.88	917.75
529.00	984.50
529.13	1001.12
529.26	950.75
529.39	984.62
529.51	1088.50
529.64	1060.75
529.77	924.12
529.90	931.25
530.02	944.00
530.15	924.62
530.28	876.25
530.40	913.00
530.53	946.00
530.66	978.38
530.79	932.00
530.91	942.50
531.04	927.88
531.17	944.50
531.30	934.88
531.42	943.25
531.55	960.00
531.68	1022.88
531.81	929.25
531.93	939.38
532.06	962.88
532.19	910.12
532.31	935.62
532.44	937.00
532.57	980.38
532.70	931.25
532.82	953.25
532.95	971.50
533.08	1022.62
533.21	986.12
533.33	920.38
533.46	931.75
533.59	944.88
533.71	1064.62
533.84	959.12
533.97	932.00
534.10	935.38
534.22	920.75
534.35	942.88
534.48	950.25
534.61	979.75
534.73	887.00
534.86	914.88
534.99	951.50
535.11	1007.38
535.24	971.38
535.37	927.75
535.50	911.50
535.62	922.00
535.75	1022.12
535.88	960.75
536.00	926.25
536.13	939.50
536.26	938.62
536.39	929.12
536.51	907.38
536.64	978.00
536.77	960.38
536.89	948.75
537.02	952.75
537.15	987.00
537.28	951.75
537.40	962.25
537.53	936.12
537.66	1011.25
537.78	973.25
537.91	920.62
538.04	931.50
538.17	991.75
538.29	984.00
538.42	1026.75
538.55	1001.50
538.67	993.50
538.80	941.12
538.93	970.62
539.05	967.25
539.18	1035.25
539.31	1000.50
539.44	969.62
539.56	883.25
539.69	950.38
539.82	943.75
539.94	920.88
540.07	929.12
540.20	1033.50
540.32	935.62
540.45	951.38
540.58	946.25
540.71	1012.88
540.83	910.50
540.96	942.12
541.09	956.88
541.21	1038.38
541.34	1034.12
541.47	937.25
541.59	957.88
541.72	1054.88
541.85	1116.75
541.98	1013.12
542.10	958.25
542.23	981.25
542.36	1090.88
542.48	978.50
542.61	963.38
542.74	927.62
542.86	949.12
542.99	953.75
543.12	940.75
543.24	978.62
543.37	913.25
543.50	960.50
543.62	939.12
543.75	958.00
543.88	955.38
544.01	969.88
544.13	984.12
544.26	1001.12
544.39	943.50
544.51	942.50
544.64	920.12
544.77	996.75
544.89	950.50
545.02	962.62
545.15	937.12
545.27	1054.62
545.40	1028.88
545.53	998.00
545.65	987.62
545.78	897.12
545.91	927.00
546.03	958.38
546.16	963.62
546.29	948.88
546.41	925.88
546.54	942.88
546.67	930.00
546.79	1005.62
546.92	1057.62
547.05	915.25
547.17	966.50
547.30	940.38
547.43	1002.38
547.56	931.38
547.68	945.25
547.81	917.12
547.94	989.00
548.06	954.00
548.19	933.88
548.32	1040.25
548.44	987.88
548.57	987.00
548.70	1008.12
548.82	1019.25
548.95	1010.50
549.08	968.00
549.20	959.25
549.33	1062.88
549.45	980.00
549.58	960.00
549.71	915.88
549.83	1019.12
549.96	925.88
550.09	964.75
550.21	948.00
550.34	988.25
550.47	961.25
550.59	954.88
550.72	893.75
550.85	978.25
550.97	1039.75
551.10	948.88
551.23	952.62
551.35	1031.75
551.48	983.12
551.61	968.38
551.73	954.00
551.86	1045.62
551.99	1044.25
552.11	975.62
552.24	1003.25
552.37	986.50
552.49	946.25
552.62	962.25
552.75	1012.25
552.87	959.88
553.00	953.88
553.12	986.12
553.25	954.88
553.38	1002.38
553.50	1029.38
553.63	964.62
553.76	911.25
553.88	979.00
554.01	968.50
554.14	974.12
554.26	999.12
554.39	1056.88
554.52	976.00
554.64	970.38
554.77	944.50
554.89	1012.62
555.02	1041.38
555.15	985.12
555.27	973.00
555.40	982.50
555.53	1041.62
555.65	968.75
555.78	944.25
555.91	1020.62
556.03	1054.75
556.16	944.75
556.29	985.38
556.41	1055.88
556.54	1056.50
556.66	980.75
556.79	961.50
556.92	987.25
557.04	996.62
557.17	959.12
557.30	963.00
557.42	967.12
557.55	977.00
557.67	995.12
557.80	973.75
557.93	989.00
558.05	990.88
558.18	940.25
558.31	983.25
558.43	1031.75
558.56	1003.25
558.68	976.88
558.81	948.88
558.94	981.25
559.06	1101.62
559.19	977.62
559.32	973.38
559.44	944.12
559.57	992.62
559.69	955.75
559.82	956.75
559.95	970.50
560.07	968.75
560.20	914.25
560.33	975.38
560.45	1004.00
560.58	934.25
560.70	982.25
560.83	947.38
560.96	965.25
561.08	980.38
561.21	1005.75
561.33	952.38
561.46	935.12
561.59	1036.00
561.71	968.75
561.84	994.12
561.97	955.00
562.09	1027.00
562.22	963.75
562.34	954.75
562.47	1025.12
562.60	1009.88
562.72	985.62
562.85	987.38
562.97	983.12
563.10	983.38
563.23	950.62
563.35	952.38
563.48	1001.88
563.60	984.88
563.73	1003.62
563.86	933.25
563.98	957.00
564.11	987.12
564.23	975.50
564.36	1037.38
564.49	983.75
564.61	1046.88
564.74	995.00
564.86	966.25
564.99	1043.38
565.12	1030.62
565.24	1037.12
565.37	1028.88
565.49	1040.50
565.62	1070.75
565.75	1029.25
565.87	957.88
566.00	1137.38
566.12	1054.62
566.25	1003.62
566.38	1023.50
566.50	1003.88
566.63	1058.38
566.75	993.75
566.88	966.12
567.01	964.88
567.13	988.88
567.26	986.12
567.38	967.88
567.51	1045.00
567.64	975.38
567.76	1009.75
567.89	1006.25
568.01	971.75
568.14	954.75
568.26	990.00
568.39	993.50
568.52	996.75
568.64	1027.38
568.77	989.00
568.89	977.75
569.02	976.88
569.15	997.62
569.27	984.75
569.40	1013.00
569.52	1024.00
569.65	979.75
569.77	983.25
569.90	960.12
570.03	953.38
570.15	1066.38
570.28	998.25
570.40	993.38
570.53	988.50
570.66	1064.25
570.78	1039.62
570.91	1003.75
571.03	967.25
571.16	999.25
571.28	953.12
571.41	943.25
571.54	945.50
571.66	934.12
571.79	973.88
571.91	971.00
572.04	955.12
572.16	1011.75
572.29	1034.00
572.42	972.38
572.54	1015.00
572.67	972.62
572.79	1012.38
572.92	983.25
573.04	1026.62
573.17	1047.12
573.29	1005.75
573.42	984.75
573.55	1038.00
573.67	1026.75
573.80	996.62
573.92	961.50
574.05	1011.38
574.17	1061.00
574.30	1003.00
574.43	982.50
574.55	981.75
574.68	1013.00
574.80	978.88
574.93	987.12
575.05	964.50
575.18	990.75
575.30	988.12
575.43	1028.12
575.56	1055.12
575.68	1020.50
575.81	986.00
575.93	966.12
576.06	1033.75
576.18	1045.38
576.31	994.25
576.43	976.38
576.56	1103.62
576.69	1058.25
576.81	1014.12
576.94	988.88
577.06	1005.12
577.19	1040.12
577.31	1009.75
577.44	1021.38
577.56	1054.75
577.69	1026.00
577.82	1024.12
577.94	971.50
578.07	950.75
578.19	1032.12
578.32	1029.38
578.44	978.62
578.57	994.12
578.69	1058.62
578.82	1010.62
578.94	1043.75
579.07	1063.38
579.19	1048.50
579.32	1021.25
579.45	1010.62
579.57	1005.75
579.70	976.12
579.82	1017.88
579.95	992.62
580.07	1081.00
580.20	1001.25
580.32	1001.50
580.45	1036.62
580.57	1044.75
580.70	1048.00
580.82	1026.00
580.95	1034.38
581.08	967.25
581.20	1056.50
581.33	994.50
581.45	1020.38
581.58	1023.00
581.70	1035.75
581.83	932.25
581.95	1027.62
582.08	1041.88
582.20	1004.00
582.33	1006.88
582.45	982.38
582.58	1004.38
582.70	1034.88
582.83	982.62
582.95	1008.38
583.08	1053.25
583.21	1067.00
583.33	1021.12
583.46	987.75
583.58	972.50
583.71	1049.38
583.83	1021.75
583.96	1022.25
584.08	1051.25
584.21	1047.75
584.33	1035.25
584.46	1002.12
584.58	971.38
584.71	1053.75
584.83	1036.75
584.96	1012.88
585.08	996.50
585.21	1119.25
585.33	1080.25
585.46	1035.75
585.58	1059.50
585.71	1001.25
585.83	1016.88
585.96	1052.50
586.08	1047.38
586.21	1039.00
586.33	1046.12
586.46	970.38
586.59	1056.62
586.71	988.25
586.84	1030.75
586.96	1020.25
587.09	957.50
587.21	1002.62
587.34	1053.50
587.46	996.00
587.59	967.25
587.71	1010.00
587.84	991.38
587.96	949.62
588.09	974.88
588.21	1045.62
588.34	1002.25
588.46	1019.00
588.59	996.25
588.71	1040.38
588.84	1030.50
588.96	1009.38
589.09	1105.00
589.21	1023.25
589.34	988.75
589.46	1010.25
589.59	1027.62
589.71	1073.62
589.84	975.75
589.96	998.00
590.09	1014.00
590.21	1057.12
590.34	1026.00
590.46	1025.75
590.59	996.88
590.71	1006.12
590.84	1049.38
590.96	980.50
591.09	1048.75
591.21	1026.50
591.34	1001.75
591.46	1004.00
591.59	1083.25
591.71	1052.75
591.83	1014.12
591.96	965.88
592.08	1007.88
592.21	1059.38
592.33	1025.88
592.46	1002.12
592.58	1030.00
592.71	1075.25
592.83	1109.25
592.96	1051.88
593.08	1079.00
593.21	991.38
593.33	980.62
593.46	1012.62
593.58	1014.88
593.71	1070.38
593.83	1072.12
593.96	989.75
594.08	1140.00
594.21	1019.62
594.33	1005.38
594.46	991.25
594.58	974.88
594.71	952.00
594.83	1027.25
594.96	1015.00
595.08	1189.00
595.20	1059.75
595.33	1026.62
595.45	996.75
595.58	1120.00
595.70	1044.62
595.83	1011.88
595.95	1019.88
596.08	1046.25
596.20	980.50
596.33	970.00
596.45	1013.88
596.58	993.25
596.70	984.38
596.83	1007.00
596.95	998.12
597.08	1032.25
597.20	984.88
597.32	1002.62
597.45	1031.38
597.57	1022.62
597.70	1070.62
597.82	1010.62
597.95	1023.12
598.07	1030.75
598.20	1034.12
598.32	1023.62
598.45	1020.38
598.57	1073.00
598.70	1098.62
598.82	1013.38
598.94	1006.12
599.07	1078.62
599.19	1033.88
599.32	1008.12
599.44	933.12
599.57	1064.25
599.69	1037.62
599.82	1019.75
599.94	985.25
600.07	1080.50
600.19	1053.62
600.31	998.75
600.44	1059.00
600.56	1148.38
600.69	1126.12
600.81	1010.62
600.94	1013.50
601.06	1038.50
601.19	1062.62
601.31	1065.12
601.44	974.75
601.56	1094.00
601.68	1072.50
601.81	1046.38
601.93	1039.38
602.06	1064.12
602.18	989.00
602.31	1013.62
602.43	1088.25
602.56	1075.50
602.68	1032.75
602.80	1038.88
602.93	1037.75
603.05	1007.75
603.18	1044.62
603.30	995.25
603.43	998.25
603.55	1030.25
603.68	1051.38
603.80	1037.38
603.92	1034.12
604.05	1011.38
604.17	1011.25
604.30	992.62
604.42	1017.00
604.55	1026.50
604.67	1060.12
604.79	1017.50
604.92	1027.88
605.04	1020.50
605.17	1015.00
605.29	1014.38
605.42	1003.38
605.54	1109.25
605.66	1053.62
605.79	1058.50
605.91	1033.50
606.04	1032.88
606.16	1003.38
606.29	1042.38
606.41	1003.75
606.53	1031.12
606.66	981.88
606.78	1024.12
606.91	1013.00
607.03	1015.12
607.16	1011.00
607.28	988.00
607.40	1036.25
607.53	1059.12
607.65	995.62
607.78	1008.38
607.90	1040.25
608.03	1149.00
608.15	1053.50
608.27	1047.62
608.40	986.50
608.52	1057.75
608.65	1035.88
608.77	1070.25
608.89	1042.25
609.02	1115.25
609.14	1123.75
609.27	1054.62
609.39	1069.75
609.52	1012.62
609.64	976.62
609.76	1015.50
609.89	1021.75
610.01	1092.62
610.14	1068.50
610.26	1028.38
610.38	996.88
610.51	1087.88
610.63	1029.00
610.76	1000.38
610.88	1061.75
611.01	1101.12
611.13	1141.62
611.25	1067.88
611.38	1002.75
611.50	1041.12
611.63	1064.25
611.75	1044.00
611.87	1044.25
612.00	1023.88
612.12	1091.88
612.25	1030.38
612.37	1005.00
612.49	1108.00
612.62	1101.25
612.74	1115.88
612.87	1039.62
612.99	1045.00
613.11	983.88
613.24	1027.00
613.36	1033.25
613.49	1054.38
613.61	1046.88
613.73	1023.50
613.86	1078.50
613.98	1016.62
614.11	1081.38
614.23	1077.62
614.35	1085.12
614.48	1085.75
614.60	1060.12
614.72	1038.25
614.85	1059.25
614.97	1058.88
615.10	1054.62
615.22	1035.12
615.34	1051.38
615.47	1100.75
615.59	1016.00
615.72	1042.12
615.84	1050.75
615.96	1018.00
616.09	1137.38
616.21	1036.00
616.34	1018.00
616.46	1035.12
616.58	1077.88
616.71	1071.88
616.83	1089.25
616.95	1082.00
617.08	1083.38
617.20	1052.38
617.33	1006.88
617.45	1037.62
617.57	1074.75
617.70	1059.38
617.82	1029.25
617.95	1057.12
618.07	1129.88
618.19	1062.62
618.32	1058.62
618.44	1034.62
618.56	1008.00
618.69	986.62
618.81	992.38
618.94	1084.38
619.06	1046.00
619.18	1038.38
619.31	1008.25
619.43	1016.38
619.55	1070.25
619.68	1061.25
619.80	1007.62
619.92	1072.50
620.05	1188.38
620.17	1098.00
620.30	1052.88
620.42	1075.38
620.54	1092.12
620.67	1027.75
620.79	1058.62
620.91	1073.50
621.04	1124.62
621.16	1036.25
621.29	1019.12
621.41	988.50
621.53	1034.38
621.66	1034.75
621.78	1027.62
621.90	1094.38
622.03	1150.12
622.15	1053.38
622.27	1039.88
622.40	1059.00
622.52	1026.88
622.64	1021.88
622.77	1000.12
622.89	1066.50
623.02	1088.75
623.14	1060.50
623.26	1077.88
623.39	1083.88
623.51	1115.62
623.63	1045.50
623.76	1019.62
623.88	1124.25
624.00	1063.25
624.13	1018.88
624.25	1015.62
624.37	1011.38
624.50	1100.25
624.62	1068.38
624.75	1013.25
624.87	1012.62
624.99	1049.25
625.12	1023.75
625.24	1043.50
625.36	1145.50
625.49	1095.38
625.61	1071.88
625.73	1058.62
625.86	1108.25
625.98	1058.25
626.10	1028.75
626.23	997.00
626.35	1082.25
626.47	1047.00
626.60	1007.62
626.72	1024.38
626.84	1028.00
626.97	1074.00
627.09	1045.00
627.21	1045.50
627.34	1170.38
627.46	1167.00
627.58	1042.50
627.71	1063.00
627.83	1100.75
627.95	1022.75
628.08	1051.75
628.20	1093.25
628.32	1000.25
628.45	973.12
628.57	979.25
628.69	1013.12
628.82	1072.62
628.94	1117.75
629.06	1048.50
629.19	1039.38
629.31	1092.50
629.43	1021.75
629.56	1065.38
629.68	1053.62
629.80	1110.25
629.93	1023.38
630.05	1028.00
630.17	1015.75
630.30	1047.12
630.42	1031.25
630.54	1080.38
630.67	1052.25
630.79	1034.38
630.91	1193.12
631.04	1076.75
631.16	1065.25
631.28	1069.25
631.41	1034.12
631.53	1009.38
631.65	1057.00
631.78	1081.62
631.90	1058.38
632.02	1048.25
632.14	969.38
632.27	1133.00
632.39	1067.88
632.51	1029.75
632.64	1108.50
632.76	1067.00
632.88	1046.12
633.01	1067.62
633.13	1042.38
633.25	1065.62
633.38	1171.25
633.50	1002.25
633.62	1002.12
633.75	996.50
633.87	982.88
633.99	1068.25
634.11	1007.00
634.24	1044.50
634.36	1050.62
634.48	1046.38
634.61	1033.38
634.73	1088.50
634.85	1042.38
634.98	1031.75
635.10	1035.00
635.22	1056.62
635.35	1183.12
635.47	1079.62
635.59	1050.50
635.71	1087.38
635.84	1114.00
635.96	1047.25
636.08	1088.75
636.21	1038.75
636.33	1076.00
636.45	1059.25
636.58	1031.25
636.70	1011.00
636.82	1086.62
636.94	1037.62
637.07	1006.12
637.19	1097.62
637.31	1094.62
637.44	1080.38
637.56	1004.50
637.68	1076.12
637.81	1081.38
637.93	1065.12
638.05	1017.00
638.17	1113.62
638.30	1179.12
638.42	1056.62
638.54	1030.25
638.67	1054.12
638.79	1064.25
638.91	1025.12
639.03	1044.62
639.16	1052.00
639.28	1061.38
639.40	1056.88
639.53	1031.00
639.65	1098.75
639.77	1060.62
639.89	1064.00
640.02	1064.62
640.14	1077.75
640.26	1024.88
640.39	1089.25
640.51	1029.25
640.63	1087.75
640.75	1108.00
640.88	1046.50
641.00	1029.00
641.12	1033.88
641.24	1143.25
641.37	1046.38
641.49	1013.00
641.61	1172.38
641.74	1040.88
641.86	1071.12
641.98	1023.38
642.10	1082.25
642.23	1087.50
642.35	1040.25
642.47	1062.12
642.60	1079.25
642.72	1104.00
642.84	1002.88
642.96	1016.88
643.09	1027.25
643.21	1031.88
643.33	1026.25
643.45	1024.38
643.58	1115.25
643.70	1145.25
643.82	1048.75
643.94	1051.88
644.07	1078.62
644.19	1090.38
644.31	1069.50
644.44	1067.25
644.56	1058.38
644.68	1034.50
644.80	1022.62
644.93	1018.88
645.05	1036.62
645.17	1085.00
645.29	1070.25
645.42	1065.38
645.54	1069.75
645.66	1091.12
645.78	1049.12
645.91	1037.50
646.03	1097.25
646.15	1144.25
646.27	1043.62
646.40	1065.25
646.52	1110.25
646.64	1114.62
646.76	1051.88
646.89	1007.50
647.01	1104.75
647.13	1090.00
647.25	1101.75
647.38	1054.75
647.50	1034.12
647.62	1104.00
647.74	1012.62
647.87	1028.62
647.99	1075.00
648.11	1099.25
648.23	1059.75
648.36	1006.12
648.48	1130.75
648.60	1078.62
648.72	1042.00
648.85	1020.75
648.97	1118.50
649.09	1096.00
649.21	1051.88
649.34	1087.12
649.46	1106.62
649.58	1092.25
649.70	1093.75
649.83	1039.75
649.95	1130.75
650.07	1114.00
650.19	1106.38
650.32	1074.88
650.44	1125.50
650.56	1091.88
650.68	1049.50
650.81	1046.50
650.93	1062.38
651.05	1143.50
651.17	1040.50
651.29	1080.25
651.42	1064.00
651.54	1103.00
651.66	1036.50
651.78	1042.88
651.91	1102.38
652.03	1204.25
652.15	1096.00
652.27	1046.25
652.40	1086.62
652.52	1067.88
652.64	1083.25
652.76	1050.75
652.88	1183.12
653.01	1085.38
653.13	1036.75
653.25	1010.50
653.37	1107.25
653.50	1126.50
653.62	1088.50
653.74	1023.25
653.86	1120.62
653.98	1111.12
654.11	1034.00
654.23	1070.75
654.35	1060.25
654.47	1202.38
654.60	1063.25
654.72	1067.00
654.84	1033.62
654.96	1122.25
655.08	1055.00
655.21	1091.12
655.33	1070.50
655.45	1134.50
655.57	1082.75
655.70	1074.88
655.82	1124.12
655.94	1164.62
656.06	1110.38
656.18	1042.50
656.31	1138.38
656.43	1110.50
656.55	1051.25
656.67	1062.75
656.79	1077.38
656.92	1137.50
657.04	1089.00
657.16	1060.12
657.28	1210.12
657.40	1107.12
657.53	1111.25
657.65	1070.25
657.77	1147.12
657.89	1138.50
658.01	1071.88
658.14	1040.12
658.26	1118.12
658.38	1084.62
658.50	1035.38
658.62	1031.62
658.75	1216.12
658.87	1125.12
658.99	1107.75
659.11	1046.25
659.23	1139.12
659.36	1199.00
659.48	1142.12
659.60	1107.00
659.72	1104.62
659.84	1103.50
659.97	1109.88
660.09	1113.25
660.21	1205.75
660.33	1145.62
660.45	1040.12
660.58	1008.12
660.70	1058.25
660.82	1076.00
660.94	1033.88
661.06	1072.00
661.19	1153.50
661.31	1130.75
661.43	1082.88
661.55	1073.75
661.67	1133.75
661.80	1165.12
661.92	1081.25
662.04	1094.50
662.16	1104.25
662.28	1157.75
662.40	1086.25
662.53	1088.50
662.65	1116.62
662.77	1060.88
662.89	1099.50
663.01	1066.62
663.14	1091.38
663.26	1118.12
663.38	1089.00
663.50	1048.88
663.62	1073.12
663.74	1090.12
663.87	1071.00
663.99	1101.50
664.11	1115.50
664.23	1211.38
664.35	1084.00
664.48	1076.12
664.60	1087.12
664.72	1083.88
664.84	1047.75
664.96	1079.00
665.08	1154.50
665.21	1113.00
665.33	1119.00
665.45	1032.50
665.57	1093.38
665.69	1178.00
665.81	1091.25
665.94	1052.12
666.06	1063.12
666.18	1122.00
666.30	1077.00
666.42	1063.25
666.54	1110.62
666.67	1124.38
666.79	1064.75
666.91	1121.00
667.03	1088.62
667.15	1047.25
667.27	1088.75
667.40	1057.00
667.52	1092.25
667.64	1144.38
667.76	1072.88
667.88	1050.62
668.00	1137.75
668.13	1144.00
668.25	1065.50
668.37	1063.00
668.49	1083.12
668.61	1152.50
668.73	1093.75
668.85	1102.12
668.98	1124.12
669.10	1117.38
669.22	1077.50
669.34	1089.25
669.46	1141.12
669.58	1086.38
669.71	1098.75
669.83	1095.88
669.95	1085.88
670.07	1106.75
670.19	1073.00
670.31	1087.88
670.43	1090.88
670.56	1112.88
670.68	1134.88
670.80	1111.00
670.92	1110.00
671.04	1168.75
671.16	1080.75
671.28	1082.12
671.41	1096.38
671.53	1135.12
671.65	1076.88
671.77	1077.88
671.89	1250.00
672.01	1204.50
672.13	1145.38
672.26	1065.00
672.38	1109.12
672.50	1073.12
672.62	1089.38
672.74	1116.75
672.86	1106.88
672.98	1122.25
673.11	1106.25
673.23	1110.12
673.35	1170.88
673.47	1108.00
673.59	1100.88
673.71	1057.88
673.83	1134.38
673.96	1230.62
674.08	1100.62
674.20	1058.75
674.32	1106.12
674.44	1114.62
674.56	1119.00
674.68	1119.50
674.80	1150.50
674.93	1112.00
675.05	1091.88
675.17	1107.25
675.29	1154.12
675.41	1156.12
675.53	1102.75
675.65	1096.25
675.77	1105.75
675.90	1162.88
676.02	1077.12
676.14	1066.88
676.26	1190.88
676.38	1220.38
676.50	1115.00
676.62	1132.88
676.74	1076.50
676.87	1089.12
676.99	1122.12
677.11	1157.38
677.23	1131.12
677.35	1142.38
677.47	1059.88
677.59	1080.00
677.71	1137.62
677.83	1144.75
677.96	1116.75
678.08	1103.38
678.20	1117.88
678.32	1078.00
678.44	1107.75
678.56	1102.00
678.68	1253.38
678.80	1167.00
678.93	1099.25
679.05	1116.12
679.17	1114.88
679.29	1173.62
679.41	1111.75
679.53	1078.00
679.65	1106.12
679.77	1123.50
679.89	1098.00
680.01	1143.12
680.14	1147.75
680.26	1059.62
680.38	1101.75
680.50	1144.00
680.62	1205.12
680.74	1143.62
680.86	1105.25
680.98	1114.00
681.10	1139.62
681.22	1240.12
681.35	1101.38
681.47	1104.12
681.59	1092.88
681.71	1212.00
681.83	1112.25
681.95	1084.12
682.07	1182.00
682.19	1146.62
682.31	1105.75
682.43	1082.88
682.56	1156.50
682.68	1074.62
682.80	1077.62
682.92	1126.75
683.04	1129.00
683.16	1113.88
683.28	1082.50
683.40	1140.50
683.52	1123.12
683.64	1145.25
683.76	1085.75
683.89	1095.12
684.01	1116.00
684.13	1177.38
684.25	1116.88
684.37	1116.38
684.49	1164.12
684.61	1117.12
684.73	1124.50
684.85	1104.12
684.97	1089.00
685.09	1187.12
685.21	1085.00
685.34	1120.38
685.46	1256.12
685.58	1152.00
685.70	1135.00
685.82	1165.50
685.94	1097.50
686.06	1090.50
686.18	1078.12
686.30	1109.38
686.42	1074.38
686.54	1159.38
686.66	1083.12
686.79	1197.38
686.91	1141.62
687.03	1244.88
687.15	1160.50
687.27	1116.62
687.39	1126.25
687.51	1204.38
687.63	1138.75
687.75	1170.50
687.87	1151.50
687.99	1206.12
688.11	1087.50
688.23	1139.38
688.35	1184.00
688.48	1145.88
688.60	1096.62
688.72	1109.62
688.84	1146.50
688.96	1172.75
689.08	1126.12
689.20	1115.88
689.32	1248.12
689.44	1137.88
689.56	1080.12
689.68	1100.62
689.80	1120.12
689.92	1103.75
690.04	1105.00
690.16	1156.12
690.28	1150.12
690.41	1150.12
690.53	1099.00
690.65	1156.62
690.77	1198.38
690.89	1185.12
691.01	1130.50
691.13	1104.62
691.25	1095.25
691.37	1128.75
691.49	1071.50
691.61	1068.88
691.73	1212.25
691.85	1134.75
691.97	1106.75
692.09	1102.00
692.21	1177.00
692.33	1210.88
692.45	1140.12
692.57	1105.62
692.70	1143.75
692.82	1166.25
692.94	1074.00
693.06	1107.62
693.18	1141.62
693.30	1119.38
693.42	1105.00
693.54	1139.25
693.66	1152.12
693.78	1149.00
693.90	1108.25
694.02	1123.50
694.14	1154.88
694.26	1124.88
694.38	1137.25
694.50	1135.50
694.62	1147.38
694.74	1087.50
694.86	1096.88
694.98	1132.50
695.10	1155.25
695.22	1185.75
695.34	1109.00
695.46	1107.38
695.58	1118.62
695.71	1149.38
695.83	1107.25
695.95	1117.00
696.07	1200.75
696.19	1104.00
696.31	1111.38
696.43	1092.50
696.55	1221.62
696.67	1158.50
696.79	1120.50
696.91	1128.25
697.03	1112.62
697.15	1225.88
697.27	1146.62
697.39	1113.62
697.51	1182.25
697.63	1106.00
697.75	1107.12
697.87	1137.88
697.99	1083.75
698.11	1054.62
698.23	1095.12
698.35	1102.38
698.47	1118.62
698.59	1158.88
698.71	1122.00
698.83	1173.75
698.95	1104.00
699.07	1151.00
699.19	1115.75
699.31	1136.25
699.43	1107.12
699.55	1170.00
699.67	1113.75
699.79	1128.00
699.91	1111.75
700.03	1150.50
700.15	1134.50
700.27	1087.12
700.39	1132.75
700.51	1094.62
700.63	1121.62
700.75	1116.38
700.87	1149.75
700.99	1122.00
701.11	1161.88
701.24	1130.88
701.36	1181.62
701.48	1181.25
701.60	1164.25
701.72	1104.88
701.84	1215.50
701.96	1162.12
702.08	1142.12
702.20	1225.50
702.32	1173.38
702.44	1167.00
702.56	1126.88
702.68	1122.12
702.80	1148.00
702.92	1239.00
703.04	1203.88
703.16	1143.75
703.28	1157.12
703.40	1134.25
703.52	1158.75
703.64	1155.88
703.76	1159.88
703.88	1133.25
704.00	1116.75
704.12	1135.62
704.24	1200.75
704.36	1157.50
704.48	1159.50
704.60	1102.12
704.72	1133.00
704.84	1136.12
704.96	1166.50
705.07	1152.25
705.19	1110.25
705.31	1138.88
705.43	1175.25
705.55	1114.12
705.67	1160.00
705.79	1145.88
705.91	1078.50
706.03	1131.00
706.15	1154.88
706.27	1140.50
706.39	1127.75
706.51	1123.25
706.63	1131.12
706.75	1178.38
706.87	1150.50
706.99	1209.12
707.11	1158.50
707.23	1137.38
707.35	1163.50
707.47	1144.38
707.59	1181.38
707.71	1196.50
707.83	1144.12
707.95	1180.88
708.07	1141.00
708.19	1277.75
708.31	1162.50
708.43	1113.50
708.55	1163.25
708.67	1214.62
708.79	1162.50
708.91	1181.62
709.03	1169.00
709.15	1203.88
709.27	1120.00
709.39	1156.00
709.51	1143.12
709.63	1175.25
709.75	1169.00
709.87	1093.12
709.99	1194.12
710.11	1130.50
710.23	1128.88
710.35	1105.00
710.47	1265.75
710.58	1214.00
710.70	1200.38
710.82	1191.38
710.94	1151.62
711.06	1152.00
711.18	1160.50
711.30	1128.50
711.42	1197.12
711.54	1154.38
711.66	1164.50
711.78	1123.88
711.90	1193.25
712.02	1237.00
712.14	1122.50
712.26	1107.75
712.38	1212.88
712.50	1227.12
712.62	1140.62
712.74	1150.88
712.86	1134.88
712.98	1202.88
713.10	1127.25
713.22	1110.75
713.34	1167.50
713.45	1139.12
713.57	1169.00
713.69	1123.12
713.81	1145.50
713.93	1165.50
714.05	1145.75
714.17	1100.62
714.29	1233.50
714.41	1221.12
714.53	1143.88
714.65	1176.50
714.77	1158.12
714.89	1115.75
715.01	1205.12
715.13	1130.88
715.25	1175.25
715.37	1133.12
715.49	1112.00
715.61	1173.00
715.72	1193.75
715.84	1215.75
715.96	1143.88
716.08	1146.88
716.20	1234.00
716.32	1218.00
716.44	1149.50
716.56	1145.75
716.68	1168.00
716.80	1253.88
716.92	1218.38
717.04	1176.38
717.16	1190.88
717.28	1167.25
717.40	1153.75
717.52	1154.00
717.63	1132.62
717.75	1170.50
717.87	1159.38
717.99	1172.25
718.11	1154.00
718.23	1230.00
718.35	1183.38
718.47	1164.25
718.59	1106.50
718.71	1163.25
718.83	1139.38
718.95	1183.62
719.07	1116.62
719.19	1151.12
719.30	1142.88
719.42	1171.00
719.54	1158.12
719.66	1174.62
719.78	1163.88
719.90	1090.88
720.02	1157.25
720.14	1185.75
720.26	1202.62
720.38	1184.12
720.50	1145.50
720.62	1093.75
720.74	1158.75
720.85	1165.00
720.97	1233.88
721.09	1273.75
721.21	1164.50
721.33	1230.62
721.45	1178.75
721.57	1184.88
721.69	1139.38
721.81	1110.75
721.93	1235.62
722.05	1185.75
722.16	1128.12
722.28	1108.38
722.40	1148.75
722.52	1220.75
722.64	1224.12
722.76	1121.12
722.88	1188.25
723.00	1186.88
723.12	1148.00
723.24	1170.88
723.36	1104.75
723.47	1215.88
723.59	1179.25
723.71	1147.25
723.83	1187.12
723.95	1154.88
724.07	1160.38
724.19	1183.75
724.31	1248.88
724.43	1135.88
724.55	1086.62
724.66	1130.88
724.78	1321.25
724.90	1138.25
725.02	1125.88
725.14	1139.25
725.26	1167.38
725.38	1097.62
725.50	1155.88
725.62	1176.25
725.74	1170.62
725.85	1166.00
725.97	1169.00
726.09	1228.38
726.21	1500.12
726.33	1208.88
726.45	1153.75
726.57	1137.88
726.69	1179.12
726.81	1181.00
726.92	1161.25
727.04	1174.50
727.16	1195.12
727.28	1166.62
727.40	1158.25
727.52	1169.50
727.64	1305.38
727.76	1269.62
727.88	1189.88
727.99	1130.38
728.11	1133.25
728.23	1168.62
728.35	1141.75
728.47	1150.25
728.59	1161.38
728.71	1185.88
728.83	1169.12
728.94	1198.50
729.06	1266.50
729.18	1248.00
729.30	1197.25
729.42	1173.25
729.54	1256.62
729.66	1270.62
729.78	1171.75
729.90	1187.38
730.01	1157.00
730.13	1099.38
730.25	1158.88
730.37	1149.50
730.49	1202.75
730.61	1197.50
730.73	1189.88
730.84	1214.88
730.96	1208.38
731.08	1200.25
731.20	1182.50
731.32	1181.62
731.44	1345.88
731.56	1176.25
731.68	1140.75
731.79	1189.12
731.91	1144.88
732.03	1163.50
732.15	1161.88
732.27	1137.75
732.39	1159.50
732.51	1213.12
732.62	1158.50
732.74	1167.12
732.86	1231.50
732.98	1197.25
733.10	1179.88
733.22	1180.88
733.34	1205.50
733.45	1127.38
733.57	1169.88
733.69	1130.38
733.81	1165.50
733.93	1189.12
734.05	1103.25
734.17	1165.25
734.28	1172.38
734.40	1174.12
734.52	1161.88
734.64	1160.38
734.76	1263.50
734.88	1187.75
735.00	1140.88
735.11	1173.12
735.23	1239.12
735.35	1167.12
735.47	1125.00
735.59	1210.88
735.71	1182.62
735.83	1199.00
735.94	1197.88
736.06	1179.62
736.18	1228.88
736.30	1230.88
736.42	1200.25
736.54	1198.12
736.65	1216.12
736.77	1346.50
736.89	1235.88
737.01	1183.12
737.13	1296.50
737.25	1117.50
737.36	1133.12
737.48	1161.62
737.60	1186.25
737.72	1163.38
737.84	1163.88
737.96	1227.62
738.08	1175.50
738.19	1283.12
738.31	1165.00
738.43	1188.00
738.55	1182.75
738.67	1189.25
738.79	1145.62
738.90	1178.62
739.02	1203.88
739.14	1159.25
739.26	1171.38
739.38	1174.75
739.50	1204.75
739.61	1176.38
739.73	1178.25
739.85	1164.75
739.97	1189.50
740.09	1247.88
740.20	1133.75
740.32	1193.75
740.44	1214.50
740.56	1147.25
740.68	1170.88
740.80	1181.62
740.91	1183.38
741.03	1237.25
741.15	1210.75
741.27	1169.75
741.39	1223.38
741.51	1196.12
741.62	1222.12
741.74	1188.50
741.86	1191.62
741.98	1182.50
742.10	1192.00
742.21	1197.25
742.33	1199.75
742.45	1157.25
742.57	1233.12
742.69	1166.25
742.80	1218.12
742.92	1178.50
743.04	1179.38
743.16	1168.00
743.28	1244.50
743.40	1154.38
743.51	1155.12
743.63	1157.38
743.75	1184.38
743.87	1174.38
743.99	1192.88
744.10	1168.88
744.22	1197.00
744.34	1164.62
744.46	1203.38
744.58	1189.00
744.69	1115.12
744.81	1185.75
744.93	1136.00
745.05	1134.88
745.17	1264.12
745.28	1264.88
745.40	1201.00
745.52	1178.00
745.64	1189.62
745.76	1235.00
745.87	1172.00
745.99	1158.88
746.11	1199.38
746.23	1149.88
746.35	1175.88
746.46	1145.62
746.58	1300.75
746.70	1195.12
746.82	1189.38
746.94	1178.88
747.05	1151.38
747.17	1129.38
747.29	1123.00
747.41	1160.38
747.53	1310.38
747.64	1170.88
747.76	1229.50
747.88	1232.75
748.00	1241.38
748.12	1198.62
748.23	1182.75
748.35	1197.62
748.47	1230.88
748.59	1223.50
748.70	1166.12
748.82	1144.50
748.94	1144.25
749.06	1168.50
749.18	1169.88
749.29	1135.62
749.41	1198.50
749.53	1177.00
749.65	1158.75
749.76	1201.00
749.88	1169.62
750.00	1202.38
750.12	1220.00
750.24	1191.00
750.35	1184.50
750.47	1136.62
750.59	1191.75
750.71	1163.25
750.82	1211.88
750.94	1152.38
751.06	1161.25
751.18	1155.38
751.30	1219.00
751.41	1230.00
751.53	1204.88
751.65	1151.75
751.77	1158.62
751.88	1200.38
752.00	1210.75
752.12	1122.75
752.24	1235.88
752.35	1208.12
752.47	1213.25
752.59	1215.25
752.71	1267.50
752.83	1168.38
752.94	1229.75
753.06	1150.62
753.18	1187.62
753.30	1162.12
753.41	1108.62
753.53	1157.50
753.65	1165.50
753.77	1225.12
753.88	1148.12
754.00	1185.00
754.12	1188.88
754.24	1251.25
754.35	1152.12
754.47	1118.12
754.59	1204.75
754.71	1197.00
754.82	1174.00
754.94	1162.75
755.06	1229.00
755.18	1189.38
755.29	1185.62
755.41	1148.00
755.53	1204.25
755.65	1155.38
755.76	1185.88
755.88	1173.62
756.00	1243.62
756.12	1165.62
756.23	1071.62
756.35	1129.62
756.47	1214.50
756.59	1157.50
756.70	1141.38
756.82	1150.25
756.94	1155.62
757.06	1196.38
757.17	1178.88
757.29	1170.75
757.41	1124.00
757.53	1189.00
757.64	1178.50
757.76	1169.50
757.88	1195.62
758.00	1195.25
758.11	1156.62
758.23	1125.38
758.35	1191.38
758.47	1127.75
758.58	1193.38
758.70	1124.62
758.82	1145.88
758.94	1127.12
759.05	1174.00
759.17	1120.38
759.29	1163.75
759.40	1235.50
759.52	1150.75
759.64	1148.25
759.76	1183.12
759.87	1197.25
759.99	1174.00
760.11	1144.00
760.23	1169.00
760.34	1207.50
760.46	1187.38
760.58	1154.25
760.70	1172.25
760.81	1228.00
760.93	1178.50
761.05	1197.62
761.16	1184.12
761.28	1155.50
761.40	1126.00
761.52	1132.25
761.63	1237.75
761.75	1182.75
761.87	1149.12
761.98	1120.50
762.10	1193.62
762.22	1171.38
762.34	1202.75
762.45	1150.38
762.57	1211.25
762.69	1302.25
762.81	1151.62
762.92	1178.00
763.04	1107.00
763.16	1190.50
763.27	1185.38
763.39	1148.88
763.51	1197.38
763.63	1195.62
763.74	1134.88
763.86	1100.75
763.98	1124.00
764.09	1149.12
764.21	1167.12
764.33	1117.62
764.44	1135.75
764.56	1169.75
764.68	1128.25
764.80	1158.12
764.91	1098.50
765.03	1220.88
765.15	1153.62
765.26	1154.88
765.38	1122.50
765.50	1196.25
765.62	1160.62
765.73	1156.88
765.85	1171.12
765.97	1113.38
766.08	1149.50
766.20	1171.25
766.32	1173.12
766.43	1206.62
766.55	1173.38
766.67	1140.25
766.79	1160.12
766.90	1135.50
767.02	1087.38
767.14	1103.50
767.25	1110.00
767.37	1251.25
767.49	1171.88
767.60	1143.00
767.72	1213.25
767.84	1183.62
767.95	1138.62
768.07	1120.88
768.19	1176.12
768.31	1179.38
768.42	1158.50
768.54	1139.62
768.66	1152.25
768.77	1189.25
768.89	1150.38
769.01	1122.12
769.12	1173.75
769.24	1160.88
769.36	1116.00
769.47	1112.75
769.59	1105.50
769.71	1171.38
769.82	1137.00
769.94	1123.25
770.06	1104.00
770.17	1195.50
770.29	1158.38
770.41	1172.62
770.53	1171.75
770.64	1113.75
770.76	1151.25
770.88	1165.12
770.99	1183.38
771.11	1113.25
771.23	1150.62
771.34	1141.12
771.46	1246.25
771.58	1202.88
771.69	1176.38
771.81	1139.75
771.93	1190.38
772.04	1120.38
772.16	1171.88
772.28	1142.50
772.39	1190.50
772.51	1146.25
772.63	1158.75
772.74	1126.12
772.86	1134.75
772.98	1267.38
773.09	1119.25
773.21	1122.25
773.33	1166.50
773.44	1164.62
773.56	1132.62
773.68	1129.88
773.79	1187.38
773.91	1132.62
774.03	1147.50
774.14	1131.50
774.26	1203.00
774.38	1111.50
774.49	1100.00
774.61	1131.38
774.73	1140.25
774.84	1120.62
774.96	1106.62
775.08	1126.38
775.19	1161.38
775.31	1202.50
775.43	1144.25
775.54	1110.75
775.66	1087.62
775.77	1177.50
775.89	1097.88
776.01	1173.62
776.12	1190.75
776.24	1156.25
776.36	1083.88
776.47	1100.50
776.59	1146.00
776.71	1183.25
776.82	1063.00
776.94	1083.62
777.06	1113.12
777.17	1197.50
777.29	1098.12
777.41	1100.50
777.52	1148.88
777.64	1145.50
777.75	1158.25
777.87	1064.50
777.99	1110.25
778.10	1178.38
778.22	1110.12
778.34	1122.50
778.45	1125.50
778.57	1177.88
778.69	1165.00
778.80	1140.38
778.92	1229.75
779.04	1149.50
779.15	1118.75
779.27	1154.38
779.38	1151.62
779.50	1190.25
779.62	1078.62
779.73	1112.12
779.85	1064.38
779.97	1238.75
780.08	1127.25
780.20	1119.38
780.31	1157.12
780.43	1173.12
780.55	1107.00
780.66	1132.62
780.78	1150.38
780.90	1238.25
781.01	1097.00
781.13	1119.88
781.25	1110.25
781.36	1176.50
781.48	1082.88
781.59	1118.50
781.71	1161.00
781.83	1143.75
781.94	1091.25
782.06	1095.12
782.18	1167.88
782.29	1115.12
782.41	1068.75
782.52	1155.38
782.64	1176.38
782.76	1134.12
782.87	1140.00
782.99	1114.38
783.10	1256.12
783.22	1277.38
783.34	1126.88
783.45	1121.75
783.57	1120.62
783.69	1090.00
783.80	1124.50
783.92	1134.00
784.03	1117.38
784.15	1089.50
784.27	1102.12
784.38	1100.38
784.50	1123.75
784.61	1121.00
784.73	1083.50
784.85	1097.88
784.96	1086.25
785.08	1172.12
785.19	1152.88
785.31	1098.62
785.43	1076.38
785.54	1083.50
785.66	1131.38
785.77	1117.50
785.89	1145.25
786.01	1061.00
786.12	1093.00
786.24	1107.75
786.35	1180.38
786.47	1118.75
786.59	1087.38
786.70	1067.62
786.82	1119.75
786.93	1125.12
787.05	1110.12
787.17	1127.88
787.28	1103.38
787.40	1126.75
787.51	1121.25
787.63	1131.88
787.75	1064.38
787.86	1124.50
787.98	1135.75
788.09	1096.25
788.21	1126.75
788.33	1152.00
788.44	1122.50
788.56	1077.75
788.67	1136.25
788.79	1089.62
788.91	1101.38
789.02	1076.50
789.14	1091.75
789.25	1198.75
789.37	1137.12
789.48	1081.00
789.60	1119.75
789.72	1072.12
789.83	1125.75
789.95	1110.62
790.06	1049.88
790.18	1067.25
790.30	1134.00
790.41	1116.62
790.53	1079.25
790.64	1056.62
790.76	1059.62
790.87	1088.62
790.99	1102.25
791.11	1107.12
791.22	1068.00
791.34	1084.38
791.45	1130.88
791.57	1116.75
791.68	1084.25
791.80	1062.25
791.92	1130.12
792.03	1074.88
792.15	1048.62
792.26	1066.25
792.38	1049.88
792.49	1111.00
792.61	1087.12
792.73	1100.12
792.84	1090.12
792.96	1203.50
793.07	1089.38
793.19	1921.00
793.30	1175.25
793.42	1142.00
793.54	1018.62
793.65	1041.00
793.77	1231.88
793.88	1075.88
794.00	1029.38
794.11	1083.50
794.23	1031.75
794.34	1098.62
794.46	1022.00
794.58	1040.50
794.69	1175.38
794.81	1177.38
794.92	1053.88
795.04	1046.50
795.15	1166.25
795.27	1126.88
795.39	1086.50
795.50	1054.88
795.62	1054.12
795.73	1067.75
795.85	1049.00
795.96	1095.25
796.08	1144.25
796.19	1057.62
796.31	1064.25
796.42	1033.25
796.54	1054.12
796.66	1129.50
796.77	1037.75
796.89	1028.00
797.00	1125.12
797.12	1000.88
797.23	1051.62
797.35	1090.38
797.46	1110.12
797.58	1135.50
797.69	1084.50
797.81	1054.75
797.93	1068.12
798.04	1051.88
798.16	1044.38
798.27	1087.38
798.39	1039.50
798.50	1021.50
798.62	1028.12
798.73	1024.38
798.85	1148.50
798.96	1076.88
799.08	1102.50
799.19	1099.00
799.31	1076.12
799.43	1075.38
799.54	1043.38
799.66	1068.25
799.77	1104.75
799.89	1039.88
800.00	1002.12
800.12	1044.75
800.23	1121.25
800.35	1159.00
800.46	999.25
800.58	989.25
800.69	1064.88
800.81	1050.25
800.92	1017.75
801.04	1065.75
801.16	992.62
801.27	1006.88
801.39	1015.00
801.50	1041.75
801.62	1047.00
801.73	1116.50
801.85	1094.88
801.96	1014.88
802.08	1118.88
802.19	1112.62
802.31	1038.00
802.42	1054.50
802.54	1138.12
802.65	1114.25
802.77	1025.25
802.88	1080.12
803.00	1014.62
803.11	1167.88
803.23	1059.62
803.34	1050.62
803.46	1075.25
803.57	1017.38
803.69	1082.88
803.80	1009.38
803.92	1108.25
804.03	1044.50
804.15	1059.75
804.26	1081.25
804.38	1090.50
804.50	1019.50
804.61	1064.88
804.73	1048.12
804.84	1049.75
804.96	984.62
805.07	1040.50
805.19	1017.00
805.30	1072.88
805.42	1101.38
805.53	1047.00
805.65	1017.75
805.76	995.12
805.88	1029.12
805.99	1048.62
806.11	1064.12
806.22	1015.00
806.34	1026.12
806.45	1032.00
806.57	1017.25
806.68	1084.25
806.80	965.50
806.91	1000.75
807.03	984.25
807.14	960.00
807.26	986.00
807.37	983.25
807.49	1023.62
807.60	1004.88
807.72	1096.50
807.83	1097.62
807.95	1039.88
808.06	1042.50
808.17	1038.88
808.29	1052.50
808.40	987.12
808.52	1024.25
808.63	1032.75
808.75	1025.00
808.86	1011.88
808.98	1038.75
809.09	990.75
809.21	1026.12
809.32	991.38
809.44	1049.62
809.55	963.88
809.67	1020.62
809.78	974.88
809.90	1043.25
810.01	1076.38
810.13	990.38
810.24	1015.88
810.36	941.75
810.47	976.75
810.59	994.38
810.70	1019.88
810.82	1048.00
810.93	961.12
811.05	963.88
811.16	971.88
811.27	955.88
811.39	1000.50
811.50	1028.38
811.62	928.75
811.73	915.00
811.85	1004.75
811.96	984.25
812.08	1006.75
812.19	994.38
812.31	1015.75
812.42	965.88
812.54	948.12
812.65	1025.50
812.77	1038.88
812.88	1008.88
813.00	1003.38
813.11	999.00
813.22	945.00
813.34	948.25
813.45	972.62
813.57	1061.75
813.68	1066.00
813.80	982.25
813.91	932.50
814.03	955.50
814.14	1049.38
814.26	935.25
814.37	960.88
814.49	964.75
814.60	948.50
814.71	932.75
814.83	950.62
814.94	910.12
815.06	944.50
815.17	952.12
815.29	937.00
815.40	911.38
815.52	1041.88
815.63	937.00
815.75	916.88
815.86	959.12
815.97	901.25
816.09	938.25
816.20	963.25
816.32	967.25
816.43	889.75
816.55	947.50
816.66	916.38
816.78	1027.50
816.89	937.88
817.00	931.25
817.12	913.38
817.23	908.25
817.35	981.38
817.46	940.75
817.58	898.12
817.69	1046.50
817.81	935.25
817.92	960.25
818.03	924.75
818.15	932.50
818.26	891.75
818.38	881.62
818.49	910.75
818.61	940.50
818.72	880.38
818.83	2013.62
818.95	1059.38
819.06	900.12
819.18	903.50
819.29	922.25
819.41	904.75
819.52	924.25
819.64	923.50
819.75	878.50
819.86	863.38
819.98	893.38
820.09	935.25
820.21	905.12
820.32	867.88
820.44	925.50
820.55	987.75
820.66	877.62
820.78	929.25
820.89	898.50
821.01	926.88
821.12	904.00
821.23	904.62
821.35	885.62
821.46	950.25
821.58	895.00
821.69	871.75
821.81	868.38
821.92	954.38
822.03	883.88
822.15	896.62
822.26	857.38
822.38	863.12
822.49	894.88
822.61	894.25
822.72	901.88
822.83	944.88
822.95	882.62
823.06	886.25
823.18	938.00
823.29	963.88
823.40	907.62
823.52	869.50
823.63	833.62
823.75	985.25
823.86	874.00
823.97	823.88
824.09	913.12
824.20	839.62
824.32	877.25
824.43	861.25
824.55	922.25
824.66	971.50
824.77	867.00
824.89	883.75
825.00	938.38
825.12	885.38
825.23	890.62
825.34	823.50
825.46	837.88
825.57	905.75
825.69	842.75
825.80	788.75
825.91	833.00
826.03	809.12
826.14	878.12
826.26	826.62
826.37	864.00
826.48	842.88
826.60	862.00
826.71	830.50
826.83	868.12
826.94	877.00
827.05	897.75
827.17	884.75
827.28	854.00
827.39	834.38
827.51	807.75
827.62	843.38
827.74	853.50
827.85	837.00
827.96	821.75
828.08	839.00
828.19	952.38
828.31	845.50
828.42	789.88
828.53	860.38
828.65	893.62
828.76	917.12
828.87	861.75
828.99	807.62
