Wavelength (nm)	Intensity
377.35	834.00
377.48	603.00
377.62	601.50
377.75	622.50
377.88	848.50
378.02	821.00
378.15	822.00
378.28	796.50
378.41	866.00
378.55	847.50
378.68	817.50
378.81	805.00
378.95	841.00
379.08	843.50
379.21	798.00
379.35	842.00
379.48	855.50
379.61	933.00
379.74	841.50
379.88	832.50
380.01	918.50
380.14	985.50
380.28	893.00
380.41	826.50
380.54	876.50
380.68	884.00
380.81	794.00
380.94	871.00
381.07	928.00
381.21	940.00
381.34	836.50
381.47	795.00
381.61	1001.00
381.74	883.00
381.87	819.50
382.00	878.00
382.14	956.50
382.27	902.00
382.40	841.50
382.54	925.00
382.67	925.00
382.80	833.50
382.93	829.00
383.07	853.00
383.20	855.50
383.33	905.00
383.47	838.50
383.60	813.50
383.73	1015.50
383.86	895.00
384.00	849.50
384.13	837.50
384.26	902.50
384.40	923.50
384.53	860.50
384.66	909.50
384.79	887.00
384.93	853.50
385.06	853.50
385.19	870.00
385.33	993.50
385.46	907.50
385.59	830.00
385.72	881.50
385.86	820.00
385.99	850.00
386.12	848.00
386.25	825.50
386.39	914.00
386.52	917.50
386.65	857.00
386.79	850.50
386.92	849.50
387.05	952.00
387.18	816.50
387.32	825.50
387.45	898.00
387.58	877.50
387.71	867.50
387.85	840.50
387.98	887.50
388.11	909.00
388.25	876.00
388.38	871.50
388.51	911.50
388.64	920.50
388.78	844.50
388.91	816.00
389.04	857.50
389.17	984.00
389.31	888.00
389.44	899.50
389.57	945.50
389.70	906.50
389.84	847.50
389.97	844.00
390.10	854.00
390.24	901.50
390.37	866.00
390.50	845.00
390.63	948.00
390.77	882.00
390.90	884.00
391.03	878.00
391.16	843.00
391.30	855.00
391.43	858.50
391.56	860.00
391.69	844.50
391.83	929.00
391.96	881.00
392.09	861.00
392.22	968.00
392.36	900.00
392.49	845.00
392.62	868.50
392.75	910.00
392.89	950.50
393.02	848.50
393.15	840.50
393.28	833.50
393.42	967.00
393.55	830.50
393.68	859.50
393.81	811.00
393.95	867.00
394.08	850.50
394.21	865.00
394.34	929.50
394.48	922.00
394.61	919.00
394.74	885.50
394.87	937.50
395.01	900.50
395.14	916.00
395.27	854.00
395.40	975.00
395.54	992.00
395.67	890.50
395.80	878.00
395.93	915.00
396.07	870.50
396.20	850.50
396.33	807.50
396.46	879.50
396.59	884.00
396.73	870.00
396.86	844.00
396.99	938.00
397.12	908.00
397.26	909.00
397.39	875.00
397.52	1190.00
397.65	1002.50
397.79	889.00
397.92	876.00
398.05	935.00
398.18	869.50
398.32	882.50
398.45	919.50
398.58	905.00
398.71	927.50
398.84	846.50
398.98	874.00
399.11	924.50
399.24	917.00
399.37	880.50
399.51	851.50
399.64	880.50
399.77	904.50
399.90	882.50
400.03	893.50
400.17	861.00
400.30	957.50
400.43	915.00
400.56	882.00
400.70	887.50
400.83	872.50
400.96	866.00
401.09	903.00
401.23	906.00
401.36	971.00
401.49	873.50
401.62	889.50
401.75	890.50
401.89	871.00
402.02	871.50
402.15	891.00
402.28	918.00
402.41	925.00
402.55	893.00
402.68	887.00
402.81	969.00
402.94	949.00
403.08	876.00
403.21	859.50
403.34	939.50
403.47	958.50
403.60	892.50
403.74	918.50
403.87	945.00
404.00	883.50
404.13	882.50
404.26	852.00
404.40	865.50
404.53	912.50
404.66	892.50
404.79	862.50
404.93	947.00
405.06	927.50
405.19	853.50
405.32	892.50
405.45	935.50
405.59	947.50
405.72	899.00
405.85	871.00
405.98	1069.00
406.11	878.00
406.25	877.50
406.38	893.50
406.51	942.50
406.64	918.00
406.77	859.50
406.91	855.50
407.04	918.00
407.17	894.00
407.30	921.00
407.43	900.00
407.57	993.50
407.70	980.00
407.83	884.50
407.96	906.50
408.09	876.50
408.23	1013.00
408.36	902.00
408.49	903.50
408.62	1028.00
408.75	930.00
408.89	893.00
409.02	927.50
409.15	926.50
409.28	1008.00
409.41	945.00
409.55	903.50
409.68	1042.00
409.81	940.50
409.94	890.00
410.07	917.00
410.20	935.00
410.34	911.00
410.47	915.50
410.60	927.00
410.73	944.00
410.86	893.00
411.00	918.00
411.13	887.00
411.26	931.00
411.39	927.50
411.52	940.50
411.66	914.50
411.79	900.00
411.92	894.50
412.05	914.50
412.18	914.50
412.31	943.50
412.45	965.00
412.58	961.50
412.71	884.00
412.84	941.50
412.97	1025.50
413.11	940.50
413.24	956.50
413.37	988.00
413.50	1028.50
413.63	934.50
413.76	916.50
413.90	970.50
414.03	923.50
414.16	916.50
414.29	946.50
414.42	937.50
414.56	1058.50
414.69	924.00
414.82	924.50
414.95	934.00
415.08	949.50
415.21	922.50
415.35	949.00
415.48	866.50
415.61	989.00
415.74	994.50
415.87	879.50
416.00	949.50
416.14	1078.50
416.27	946.00
416.40	903.50
416.53	947.00
416.66	969.00
416.79	943.00
416.93	912.00
417.06	1004.00
417.19	954.50
417.32	937.50
417.45	918.00
417.58	902.50
417.72	1001.50
417.85	927.00
417.98	945.00
418.11	984.00
418.24	924.50
418.37	925.00
418.51	936.00
418.64	953.50
418.77	1017.50
418.90	960.50
419.03	910.50
419.16	973.50
419.29	998.50
419.43	922.00
419.56	911.50
419.69	1067.50
419.82	1007.50
419.95	944.00
420.08	990.00
420.22	1030.50
420.35	1093.00
420.48	982.50
420.61	939.00
420.74	897.00
420.87	976.50
421.00	914.00
421.14	941.00
421.27	1007.50
421.40	1032.50
421.53	983.00
421.66	945.00
421.79	963.50
421.93	958.50
422.06	950.00
422.19	930.00
422.32	1004.00
422.45	1002.00
422.58	964.50
422.71	939.00
422.85	1010.00
422.98	1004.50
423.11	906.00
423.24	902.50
423.37	930.50
423.50	944.00
423.63	954.00
423.77	927.50
423.90	945.50
424.03	1012.50
424.16	993.00
424.29	939.50
424.42	911.00
424.55	945.50
424.69	928.50
424.82	964.00
424.95	987.50
425.08	951.50
425.21	1000.00
425.34	958.00
425.47	978.50
425.60	1008.00
425.74	909.50
425.87	958.50
426.00	970.00
426.13	989.50
426.26	931.50
426.39	934.00
426.52	963.00
426.66	1047.50
426.79	1002.50
426.92	942.00
427.05	1087.50
427.18	1050.50
427.31	965.00
427.44	965.00
427.57	962.50
427.71	973.50
427.84	939.50
427.97	977.00
428.10	1042.00
428.23	984.00
428.36	955.50
428.49	888.00
428.62	1114.00
428.76	1092.50
428.89	994.50
429.02	947.00
429.15	991.50
429.28	1112.00
429.41	979.50
429.54	986.00
429.67	979.50
429.81	1024.50
429.94	983.50
430.07	965.00
430.20	1040.50
430.33	1060.50
430.46	959.50
430.59	957.50
430.72	998.50
430.85	961.00
430.99	1000.00
431.12	949.50
431.25	1048.50
431.38	1068.00
431.51	1002.50
431.64	988.00
431.77	1071.00
431.90	1086.00
432.03	1001.00
432.17	973.50
432.30	1020.50
432.43	1019.50
432.56	998.50
432.69	1024.00
432.82	1024.50
432.95	1068.50
433.08	1011.50
433.21	1020.00
433.35	997.00
433.48	1008.50
433.61	968.00
433.74	999.00
433.87	981.00
434.00	1046.50
434.13	977.00
434.26	1032.50
434.39	1049.50
434.53	1063.00
434.66	1001.50
434.79	1004.00
434.92	1016.00
435.05	1097.00
435.18	999.50
435.31	1026.50
435.44	1087.00
435.57	1025.50
435.70	1006.00
435.84	982.00
435.97	1096.50
436.10	1129.00
436.23	1008.50
436.36	986.50
436.49	1007.00
436.62	1031.00
436.75	1008.00
436.88	1040.00
437.01	1004.50
437.14	994.00
437.28	966.50
437.41	999.00
437.54	1093.00
437.67	1068.00
437.80	1014.00
437.93	986.50
438.06	1163.00
438.19	1079.00
438.32	991.00
438.45	1007.50
438.58	1054.00
438.72	1134.50
438.85	1072.00
438.98	1026.00
439.11	1059.00
439.24	1115.00
439.37	1104.50
439.50	1070.00
439.63	1098.50
439.76	1030.50
439.89	1019.50
440.02	1030.00
440.15	1082.50
440.29	1124.50
440.42	1039.50
440.55	1034.50
440.68	1147.50
440.81	1171.00
440.94	1051.00
441.07	1043.00
441.20	1149.00
441.33	1085.00
441.46	1040.00
441.59	1015.50
441.72	1054.50
441.85	1052.00
441.99	1071.50
442.12	1076.50
442.25	1154.00
442.38	1084.50
442.51	1054.00
442.64	1006.00
442.77	1067.50
442.90	1034.50
443.03	1013.50
443.16	1040.00
443.29	1077.50
443.42	1144.00
443.55	1040.50
443.68	1072.00
443.82	1037.50
443.95	1059.00
444.08	1057.50
444.21	1052.00
444.34	1042.00
444.47	1063.00
444.60	1063.00
444.73	1088.00
444.86	1075.50
444.99	1151.50
445.12	1105.00
445.25	1087.50
445.38	1096.00
445.51	1136.00
445.64	1089.00
445.78	1068.00
445.91	1024.50
446.04	1204.50
446.17	1122.00
446.30	1033.50
446.43	1116.00
446.56	1115.00
446.69	1080.50
446.82	1078.00
446.95	1144.00
447.08	1173.00
447.21	1097.00
447.34	1064.50
447.47	1147.50
447.60	1156.00
447.73	1082.00
447.86	1124.00
447.99	1114.50
448.13	1118.00
448.26	1137.00
448.39	1085.50
448.52	1144.50
448.65	1169.50
448.78	1111.00
448.91	1085.50
449.04	1145.50
449.17	1101.00
449.30	1119.50
449.43	1112.00
449.56	1119.00
449.69	1188.50
449.82	1111.50
449.95	1064.00
450.08	1170.50
450.21	1169.50
450.34	1127.50
450.47	1110.00
450.60	1173.00
450.73	1153.00
450.87	1117.50
451.00	1150.50
451.13	1178.50
451.26	1298.00
451.39	1100.00
451.52	1144.50
451.65	1124.00
451.78	1133.50
451.91	1121.00
452.04	1098.50
452.17	1246.00
452.30	1241.00
452.43	1127.00
452.56	1133.00
452.69	1214.00
452.82	1111.50
452.95	1186.00
453.08	1097.00
453.21	1080.00
453.34	1199.00
453.47	1132.00
453.60	1196.50
453.73	1256.50
453.86	1190.00
453.99	1169.00
454.12	1177.00
454.25	1158.00
454.38	1185.50
454.52	1120.00
454.65	1133.00
454.78	1150.50
454.91	1122.00
455.04	1155.00
455.17	1124.00
455.30	1153.50
455.43	1241.50
455.56	1161.50
455.69	1122.50
455.82	1188.00
455.95	1195.00
456.08	1131.50
456.21	1120.00
456.34	1127.00
456.47	1133.00
456.60	1175.00
456.73	1144.00
456.86	1174.50
456.99	1214.00
457.12	1164.50
457.25	1186.00
457.38	1273.00
457.51	1230.00
457.64	1212.50
457.77	1183.50
457.90	1199.50
458.03	1187.00
458.16	1185.00
458.29	1193.00
458.42	1196.00
458.55	1167.00
458.68	1177.50
458.81	1201.00
458.94	1286.00
459.07	1331.00
459.20	1167.00
459.33	1185.50
459.46	1290.50
459.59	1343.50
459.72	1290.00
459.85	1214.00
459.98	1312.00
460.11	1291.00
460.24	1245.00
460.37	1203.50
460.50	1294.00
460.63	1269.50
460.76	1227.00
460.89	1249.50
461.02	1286.50
461.15	1297.50
461.28	1255.50
461.41	1233.00
461.54	1344.00
461.67	1227.00
461.80	1273.00
461.93	1293.50
462.06	1313.50
462.19	1337.00
462.32	1257.50
462.45	1245.00
462.58	1297.00
462.71	1264.00
462.84	1272.50
462.97	1209.50
463.10	1265.50
463.23	1308.50
463.36	1310.00
463.49	1294.50
463.62	1251.00
463.75	1329.00
463.88	1276.50
464.01	1304.00
464.14	1260.50
464.27	1413.50
464.40	1303.00
464.53	1285.50
464.66	1349.50
464.79	1331.50
464.92	1325.00
465.05	1289.00
465.18	1322.50
465.31	1341.00
465.44	1314.50
465.57	1294.50
465.70	1313.00
465.83	1465.00
465.96	1351.50
466.09	1332.00
466.22	1407.50
466.35	1383.00
466.48	1332.50
466.61	1337.00
466.74	1362.00
466.87	1408.50
467.00	1386.00
467.13	1377.00
467.26	1431.50
467.39	1341.00
467.52	1339.00
467.65	1372.00
467.78	1464.00
467.91	1388.50
468.04	1404.00
468.17	1367.00
468.30	1382.00
468.43	1352.50
468.56	1381.00
468.69	1401.00
468.82	1447.50
468.95	1377.50
469.08	1405.00
469.21	1415.50
469.34	1454.50
469.47	1524.00
469.60	1495.50
469.73	1444.50
469.86	1479.50
469.99	1500.00
470.11	1412.00
470.24	1437.50
470.37	1502.00
470.50	1469.50
470.63	1434.50
470.76	1451.00
470.89	1513.00
471.02	1590.50
471.15	1466.50
471.28	1477.50
471.41	1594.50
471.54	1530.00
471.67	1483.50
471.80	1437.00
471.93	1563.50
472.06	1534.00
472.19	1486.50
472.32	1476.00
472.45	1636.00
472.58	1607.00
472.71	1557.50
472.84	1499.50
472.97	1530.00
473.10	1496.50
473.23	1585.00
473.36	1511.50
473.49	1636.00
473.62	1608.00
473.74	1571.50
473.87	1604.00
474.00	1546.00
474.13	1573.00
474.26	1612.00
474.39	1629.50
474.52	1586.50
474.65	1591.00
474.78	1612.50
474.91	1569.50
475.04	1654.50
475.17	1767.50
475.30	1670.50
475.43	1654.50
475.56	1709.50
475.69	1627.50
475.82	1686.50
475.95	1635.50
476.08	1751.00
476.21	1682.50
476.34	1717.00
476.46	1728.50
476.59	1764.00
476.72	1688.50
476.85	1680.00
476.98	1654.00
477.11	1773.50
477.24	1700.00
477.37	1636.50
477.50	1685.00
477.63	1734.50
477.76	1719.50
477.89	1688.00
478.02	1704.00
478.15	1753.00
478.28	1747.50
478.41	1782.50
478.54	1739.00
478.66	1848.50
478.79	1750.50
478.92	1766.50
479.05	1781.00
479.18	1780.00
479.31	1781.50
479.44	1798.50
479.57	1800.00
479.70	1810.50
479.83	1818.50
479.96	1825.00
480.09	1848.50
480.22	2006.00
480.35	1977.00
480.48	1892.00
480.60	1894.50
480.73	1855.50
480.86	1932.00
480.99	1876.50
481.12	1875.00
481.25	1905.50
481.38	1980.50
481.51	1892.50
481.64	1906.50
481.77	1967.00
481.90	1935.00
482.03	1918.00
482.16	1917.00
482.29	1995.50
482.41	1953.50
482.54	1965.00
482.67	1937.50
482.80	1975.00
482.93	2050.00
483.06	1978.00
483.19	2033.00
483.32	2027.50
483.45	1991.50
483.58	2005.00
483.71	2027.50
483.84	2083.50
483.97	2060.00
484.09	2012.00
484.22	2019.50
484.35	2021.50
484.48	1991.50
484.61	2019.50
484.74	2032.50
484.87	2082.00
485.00	2050.50
485.13	2086.50
485.26	2037.50
485.39	2119.00
485.52	2071.50
485.64	2172.50
485.77	2137.50
485.90	2176.50
486.03	2079.50
486.16	2127.00
486.29	2107.00
486.42	2128.50
486.55	2153.50
486.68	2111.00
486.81	2176.00
486.94	2177.00
487.06	2150.50
487.19	2203.00
487.32	2210.50
487.45	2186.50
487.58	2171.50
487.71	2217.00
487.84	2146.00
487.97	2226.00
488.10	2283.50
488.23	2216.50
488.35	2181.50
488.48	2236.50
488.61	2187.50
488.74	2225.00
488.87	2234.50
489.00	2267.50
489.13	2346.00
489.26	2302.50
489.39	2284.00
489.52	2318.00
489.64	2304.50
489.77	2306.50
489.90	2307.00
490.03	2287.00
490.16	2319.00
490.29	2291.00
490.42	2287.50
490.55	2332.50
490.68	2275.50
490.81	2310.50
490.93	2289.50
491.06	2411.50
491.19	2383.50
491.32	2360.50
491.45	2381.50
491.58	2318.00
491.71	2364.50
491.84	2347.00
491.97	2376.50
492.09	2470.50
492.22	2434.50
492.35	2392.50
492.48	2425.50
492.61	2434.00
492.74	2411.50
492.87	2439.00
493.00	2399.00
493.12	2399.50
493.25	2456.00
493.38	2412.00
493.51	2402.50
493.64	2405.00
493.77	2438.50
493.90	2505.00
494.03	2509.50
494.16	2536.00
494.28	2552.00
494.41	2483.00
494.54	2501.00
494.67	2590.00
494.80	2598.50
494.93	2533.00
495.06	2546.50
495.19	2548.00
495.31	2498.50
495.44	2515.00
495.57	2517.50
495.70	2555.00
495.83	2552.00
495.96	2548.00
496.09	2568.50
496.22	2635.00
496.34	2666.00
496.47	2577.00
496.60	2583.00
496.73	2644.00
496.86	2635.50
496.99	2545.50
497.12	2600.00
497.24	2570.50
497.37	2627.00
497.50	2582.00
497.63	2582.50
497.76	2654.50
497.89	2693.00
498.02	2652.50
498.15	2583.00
498.27	2655.50
498.40	2708.00
498.53	2726.00
498.66	2662.00
498.79	2718.00
498.92	2648.00
499.05	2669.50
499.17	2698.50
499.30	2746.00
499.43	2815.00
499.56	2722.00
499.69	2672.00
499.82	2751.50
499.95	2704.00
500.07	2691.00
500.20	2729.50
500.33	2796.50
500.46	2913.50
500.59	2776.50
500.72	2771.00
500.85	2799.50
500.97	2816.00
501.10	2798.50
501.23	2754.00
501.36	2797.50
501.49	2893.00
501.62	2844.00
501.75	2797.50
501.87	2869.50
502.00	2778.00
502.13	2809.00
502.26	2806.50
502.39	2791.00
502.52	2810.00
502.64	2811.50
502.77	2820.00
502.90	2889.00
503.03	2869.50
503.16	2846.50
503.29	2848.00
503.42	2921.50
503.54	2871.00
503.67	2889.00
503.80	2891.00
503.93	2957.50
504.06	2864.00
504.19	2897.50
504.31	2952.50
504.44	2932.50
504.57	2944.50
504.70	2917.00
504.83	2885.50
504.96	2976.50
505.08	2922.00
505.21	2942.00
505.34	3076.00
505.47	3035.50
505.60	2982.50
505.73	2990.50
505.85	3023.50
505.98	3117.00
506.11	2985.50
506.24	2957.50
506.37	2958.50
506.50	2995.50
506.62	3057.00
506.75	2993.00
506.88	2993.00
507.01	3036.00
507.14	3001.50
507.27	3013.00
507.39	3018.00
507.52	3044.00
507.65	3013.50
507.78	3087.50
507.91	3051.00
508.04	3118.50
508.16	3123.50
508.29	3092.50
508.42	3053.50
508.55	3051.50
508.68	3075.50
508.81	3149.00
508.93	3061.50
509.06	3115.00
509.19	3166.00
509.32	3124.00
509.45	3126.50
509.57	3151.00
509.70	3123.50
509.83	3135.50
509.96	3086.50
510.09	3150.50
510.22	3154.00
510.34	3159.50
510.47	3137.00
510.60	3254.50
510.73	3188.50
510.86	3189.50
510.98	3172.50
511.11	3158.50
511.24	3231.00
511.37	3218.50
511.50	3199.50
511.63	3214.00
511.75	3229.50
511.88	3207.00
512.01	3251.00
512.14	3242.00
512.27	3264.00
512.39	3216.50
512.52	3222.50
512.65	3261.50
512.78	3204.50
512.91	3245.00
513.03	3284.50
513.16	3341.00
513.29	3291.00
513.42	3256.50
513.55	3229.00
513.67	3339.50
513.80	3265.00
513.93	3285.50
514.06	3284.50
514.19	3339.50
514.31	3346.00
514.44	3388.50
514.57	3318.00
514.70	3341.50
514.83	3400.00
514.95	3283.50
515.08	3357.50
515.21	3384.00
515.34	3339.00
515.47	3377.50
515.59	3354.50
515.72	3413.50
515.85	3413.50
515.98	3475.50
516.11	3388.00
516.23	3431.50
516.36	3495.00
516.49	3464.00
516.62	3414.00
516.75	3491.00
516.87	3511.00
517.00	3384.50
517.13	3475.50
517.26	3521.50
517.39	3461.50
517.51	3399.00
517.64	3477.50
517.77	3562.50
517.90	3445.00
518.02	3486.50
518.15	3478.50
518.28	3436.00
518.41	3522.00
518.54	3491.50
518.66	3503.50
518.79	3462.00
518.92	3495.00
519.05	3507.50
519.18	3482.50
519.30	3553.00
519.43	3474.50
519.56	3512.50
519.69	3572.50
519.81	3587.50
519.94	3528.00
520.07	3492.00
520.20	3544.50
520.33	3565.50
520.45	3618.50
520.58	3588.00
520.71	3614.00
520.84	3594.00
520.96	3604.00
521.09	3592.00
521.22	3558.50
521.35	3638.00
521.48	3686.00
521.60	3583.50
521.73	3578.00
521.86	3670.00
521.99	3742.50
522.11	3628.50
522.24	3649.00
522.37	3675.00
522.50	3665.50
522.62	3695.00
522.75	3609.50
522.88	3661.50
523.01	3643.00
523.14	3669.00
523.26	3692.00
523.39	3751.50
523.52	3657.00
523.65	3810.50
523.77	3724.00
523.90	3718.00
524.03	3713.50
524.16	3726.50
524.28	3681.00
524.41	3734.00
524.54	3719.50
524.67	3653.50
524.79	3763.00
524.92	3783.00
525.05	3839.00
525.18	3725.00
525.31	3798.00
525.43	3732.50
525.56	3889.00
525.69	3776.50
525.82	3694.50
525.94	3839.50
526.07	3801.50
526.20	3829.50
526.33	3824.50
526.45	3943.00
526.58	3904.00
526.71	3808.00
526.84	3762.00
526.96	3811.00
527.09	3779.50
527.22	3811.00
527.35	3805.50
527.47	3787.00
527.60	3915.50
527.73	3808.50
527.86	3862.00
527.98	3851.50
528.11	3830.50
528.24	3824.00
528.37	3834.50
528.49	3801.00
528.62	3864.00
528.75	3894.00
528.88	3834.00
529.00	3888.00
529.13	3888.50
529.26	3879.00
529.39	3918.00
529.51	4042.00
529.64	4018.50
529.77	3902.00
529.90	3902.00
530.02	3899.00
530.15	3915.00
530.28	3845.00
530.40	3902.50
530.53	3932.00
530.66	3954.50
530.79	3937.50
530.91	3945.00
531.04	3951.50
531.17	3946.50
531.30	3938.50
531.42	3963.50
531.55	3982.00
531.68	4059.50
531.81	3922.50
531.93	3939.50
532.06	4005.00
532.19	3949.50
532.31	3960.00
532.44	3975.00
532.57	4034.00
532.70	3969.50
532.82	4007.50
532.95	4024.50
533.08	4093.00
533.21	4043.50
533.33	3972.00
533.46	3992.00
533.59	4048.00
533.71	4142.50
533.84	4038.00
533.97	4008.50
534.10	3995.00
534.22	4029.50
534.35	4101.00
534.48	4063.50
534.61	4106.00
534.73	4008.00
534.86	4039.00
534.99	4091.50
535.11	4140.00
535.24	4119.50
535.37	4090.00
535.50	4094.00
535.62	4107.50
535.75	4205.50
535.88	4117.00
536.00	4087.50
536.13	4099.50
536.26	4105.00
536.39	4093.00
536.51	4084.00
536.64	4166.00
536.77	4100.50
536.89	4134.50
537.02	4156.50
537.15	4222.50
537.28	4153.50
537.40	4177.00
537.53	4160.50
537.66	4172.00
537.78	4163.50
537.91	4146.00
538.04	4169.50
538.17	4247.50
538.29	4183.50
538.42	4274.00
538.55	4234.50
538.67	4240.50
538.80	4205.50
538.93	4220.00
539.05	4221.00
539.18	4310.50
539.31	4262.00
539.44	4219.50
539.56	4208.50
539.69	4234.00
539.82	4213.50
539.94	4242.50
540.07	4212.00
540.20	4344.00
540.32	4238.50
540.45	4261.50
540.58	4264.00
540.71	4325.50
540.83	4230.50
540.96	4277.00
541.09	4308.50
541.21	4371.50
541.34	4394.00
541.47	4261.00
541.59	4342.00
541.72	4420.50
541.85	4484.50
541.98	4396.00
542.10	4320.00
542.23	4351.50
542.36	4478.00
542.48	4355.00
542.61	4336.00
542.74	4323.00
542.86	4351.00
542.99	4336.00
543.12	4306.00
543.24	4405.00
543.37	4331.00
543.50	4340.00
543.62	4361.00
543.75	4361.50
543.88	4352.50
544.01	4370.50
544.13	4427.50
544.26	4469.00
544.39	4361.00
544.51	4400.00
544.64	4391.50
544.77	4411.00
544.89	4369.00
545.02	4435.50
545.15	4427.50
545.27	4493.50
545.40	4497.50
545.53	4472.00
545.65	4480.50
545.78	4383.50
545.91	4403.50
546.03	4467.50
546.16	4476.50
546.29	4466.50
546.41	4444.50
546.54	4485.50
546.67	4449.50
546.79	4530.50
546.92	4575.00
547.05	4439.50
547.17	4529.50
547.30	4470.50
547.43	4497.50
547.56	4477.50
547.68	4474.00
547.81	4499.50
547.94	4553.00
548.06	4500.00
548.19	4471.00
548.32	4568.50
548.44	4532.00
548.57	4541.00
548.70	4569.00
548.82	4545.50
548.95	4562.00
549.08	4570.50
549.20	4550.00
549.33	4628.00
549.45	4549.00
549.58	4547.50
549.71	4501.00
549.83	4600.00
549.96	4511.00
550.09	4555.00
550.21	4546.00
550.34	4622.00
550.47	4553.50
550.59	4590.00
550.72	4553.50
550.85	4614.50
550.97	4684.50
551.10	4569.00
551.23	4588.50
551.35	4680.50
551.48	4653.00
551.61	4638.00
551.73	4626.50
551.86	4725.50
551.99	4739.50
552.11	4640.00
552.24	4675.00
552.37	4685.00
552.49	4657.50
552.62	4651.50
552.75	4698.00
552.87	4644.00
553.00	4664.50
553.12	4706.50
553.25	4682.50
553.38	4724.50
553.50	4772.50
553.63	4727.00
553.76	4683.00
553.88	4749.00
554.01	4701.00
554.14	4748.50
554.26	4765.50
554.39	4827.50
554.52	4746.00
554.64	4709.50
554.77	4720.00
554.89	4826.50
555.02	4808.50
555.15	4779.00
555.27	4750.00
555.40	4761.00
555.53	4830.50
555.65	4752.50
555.78	4752.50
555.91	4833.00
556.03	4863.00
556.16	4767.00
556.29	4789.00
556.41	4883.50
556.54	4909.50
556.66	4842.50
556.79	4834.50
556.92	4852.50
557.04	4865.00
557.17	4819.50
557.30	4811.50
557.42	4860.50
557.55	4856.00
557.67	4883.00
557.80	4865.00
557.93	4892.00
558.05	4896.00
558.18	4840.50
558.31	4832.00
558.43	4964.50
558.56	4924.00
558.68	4919.00
558.81	4879.50
558.94	4921.50
559.06	5055.00
559.19	4924.50
559.32	4914.00
559.44	4883.50
559.57	4928.50
559.69	4997.00
559.82	4935.00
559.95	4941.50
560.07	4952.50
560.20	4903.50
560.33	4947.50
560.45	4994.50
560.58	4935.00
560.70	4966.50
560.83	4932.50
560.96	4966.00
561.08	4989.00
561.21	5026.50
561.33	4959.00
561.46	4938.50
561.59	5073.00
561.71	4998.50
561.84	5010.00
561.97	4991.00
562.09	5077.00
562.22	5021.00
562.34	5018.00
562.47	5078.50
562.60	5056.00
562.72	5042.00
562.85	5061.50
562.97	5095.00
563.10	5064.00
563.23	5052.50
563.35	5022.00
563.48	5095.50
563.60	5094.00
563.73	5093.00
563.86	5074.50
563.98	5105.50
564.11	5107.00
564.23	5138.50
564.36	5167.50
564.49	5113.00
564.61	5177.00
564.74	5125.50
564.86	5132.50
564.99	5220.00
565.12	5181.50
565.24	5228.00
565.37	5180.00
565.49	5171.00
565.62	5234.00
565.75	5178.00
565.87	5111.50
566.00	5325.00
566.12	5256.50
566.25	5155.00
566.38	5203.50
566.50	5190.50
566.63	5235.50
566.75	5211.00
566.88	5191.00
567.01	5144.00
567.13	5180.50
567.26	5185.50
567.38	5144.00
567.51	5228.50
567.64	5149.00
567.76	5213.50
567.89	5210.50
568.01	5210.50
568.14	5203.50
568.26	5248.00
568.39	5209.00
568.52	5259.50
568.64	5287.00
568.77	5216.00
568.89	5232.00
569.02	5239.50
569.15	5223.50
569.27	5217.50
569.40	5268.00
569.52	5270.50
569.65	5235.00
569.77	5210.00
569.90	5200.50
570.03	5220.50
570.15	5320.00
570.28	5227.00
570.40	5263.00
570.53	5248.50
570.66	5347.50
570.78	5321.50
570.91	5237.50
571.03	5211.00
571.16	5293.50
571.28	5244.50
571.41	5189.00
571.54	5199.00
571.66	5179.50
571.79	5258.50
571.91	5224.50
572.04	5268.00
572.16	5326.50
572.29	5312.00
572.42	5261.00
572.54	5309.50
572.67	5310.00
572.79	5322.50
572.92	5280.00
573.04	5302.50
573.17	5341.50
573.29	5313.50
573.42	5331.50
573.55	5331.50
573.67	5339.00
573.80	5280.00
573.92	5271.50
574.05	5293.00
574.17	5387.00
574.30	5341.50
574.43	5283.50
574.55	5272.00
574.68	5348.50
574.80	5309.50
574.93	5296.50
575.05	5299.50
575.18	5336.00
575.30	5306.00
575.43	5349.00
575.56	5427.00
575.68	5358.50
575.81	5307.50
575.93	5314.00
576.06	5374.50
576.18	5402.00
576.31	5343.00
576.43	5304.50
576.56	5456.00
576.69	5415.00
576.81	5386.50
576.94	5353.50
577.06	5353.00
577.19	5374.00
577.31	5375.00
577.44	5370.50
577.56	5421.50
577.69	5368.50
577.82	5410.00
577.94	5303.00
578.07	5273.00
578.19	5393.00
578.32	5398.00
578.44	5328.00
578.57	5366.50
578.69	5415.00
578.82	5391.50
578.94	5388.00
579.07	5428.50
579.19	5459.50
579.32	5388.50
579.45	5342.50
579.57	5376.50
579.70	5360.50
579.82	5409.00
579.95	5391.00
580.07	5465.50
580.20	5406.50
580.32	5406.50
580.45	5441.00
580.57	5446.50
580.70	5399.50
580.82	5404.50
580.95	5400.00
581.08	5326.00
581.20	5463.50
581.33	5382.50
581.45	5367.50
581.58	5410.00
581.70	5456.00
581.83	5336.00
581.95	5394.50
582.08	5443.00
582.20	5399.50
582.33	5412.00
582.45	5372.00
582.58	5413.50
582.70	5436.00
582.83	5415.00
582.95	5396.50
583.08	5466.00
583.21	5447.50
583.33	5419.00
583.46	5412.00
583.58	5408.50
583.71	5440.50
583.83	5415.50
583.96	5436.50
584.08	5524.50
584.21	5455.00
584.33	5447.00
584.46	5392.00
584.58	5384.50
584.71	5503.50
584.83	5497.50
584.96	5481.00
585.08	5420.50
585.21	5544.50
585.33	5513.50
585.46	5448.00
585.58	5469.00
585.71	5419.50
585.83	5461.00
585.96	5499.50
586.08	5506.00
586.21	5483.50
586.33	5503.00
586.46	5394.50
586.59	5506.00
586.71	5426.50
586.84	5466.00
586.96	5487.50
587.09	5395.50
587.21	5405.00
587.34	5473.00
587.46	5398.50
587.59	5406.50
587.71	5444.00
587.84	5473.50
587.96	5433.00
588.09	5401.50
588.21	5469.00
588.34	5430.00
588.46	5482.50
588.59	5435.50
588.71	5487.00
588.84	5490.50
588.96	5519.50
589.09	5605.00
589.21	5514.00
589.34	5422.00
589.46	5483.50
589.59	5490.00
589.71	5511.00
589.84	5443.50
589.96	5466.50
590.09	5474.50
590.21	5508.00
590.34	5520.00
590.46	5509.50
590.59	5449.00
590.71	5475.00
590.84	5463.00
590.96	5460.00
591.09	5543.50
591.21	5495.00
591.34	5481.00
591.46	5509.00
591.59	5594.00
591.71	5508.00
591.83	5503.00
591.96	5429.00
592.08	5493.50
592.21	5549.50
592.33	5488.50
592.46	5519.50
592.58	5524.50
592.71	5547.00
592.83	5578.00
592.96	5513.50
593.08	5548.00
593.21	5449.00
593.33	5466.00
593.46	5497.00
593.58	5498.00
593.71	5549.00
593.83	5505.00
593.96	5467.00
594.08	5627.00
594.21	5564.50
594.33	5482.50
594.46	5513.50
594.58	5443.50
594.71	5460.50
594.83	5488.00
594.96	5480.50
595.08	5661.00
595.20	5544.00
595.33	5558.50
595.45	5501.50
595.58	5646.00
595.70	5555.00
595.83	5522.50
595.95	5541.50
596.08	5514.50
596.20	5441.50
596.33	5456.00
596.45	5485.00
596.58	5519.00
596.70	5496.00
596.83	5492.50
596.95	5535.00
597.08	5543.50
597.20	5485.00
597.32	5508.00
597.45	5528.50
597.57	5500.00
597.70	5559.00
597.82	5538.50
597.95	5528.00
598.07	5526.50
598.20	5575.00
598.32	5559.50
598.45	5558.50
598.57	5621.00
598.70	5602.50
598.82	5513.50
598.94	5497.50
599.07	5606.00
599.19	5556.00
599.32	5544.00
599.44	5435.50
599.57	5599.00
599.69	5526.50
599.82	5544.50
599.94	5473.00
600.07	5617.50
600.19	5557.00
600.31	5537.00
600.44	5611.00
600.56	5652.00
600.69	5653.50
600.81	5542.50
600.94	5520.50
601.06	5557.00
601.19	5583.00
601.31	5604.50
601.44	5476.50
601.56	5647.00
601.68	5614.50
601.81	5571.00
601.93	5552.50
602.06	5603.00
602.18	5511.00
602.31	5549.50
602.43	5601.00
602.56	5597.50
602.68	5586.00
602.80	5559.00
602.93	5582.50
603.05	5499.50
603.18	5598.50
603.30	5528.00
603.43	5575.50
603.55	5536.50
603.68	5578.00
603.80	5564.50
603.92	5549.00
604.05	5590.50
604.17	5548.50
604.30	5515.50
604.42	5493.50
604.55	5549.50
604.67	5584.50
604.79	5565.50
604.92	5557.50
605.04	5572.50
605.17	5523.50
605.29	5503.00
605.42	5543.50
605.54	5651.00
605.66	5592.00
605.79	5594.00
605.91	5538.50
606.04	5575.00
606.16	5540.00
606.29	5586.50
606.41	5561.00
606.53	5576.50
606.66	5517.00
606.78	5574.50
606.91	5550.50
607.03	5572.00
607.16	5554.00
607.28	5551.50
607.40	5605.00
607.53	5624.00
607.65	5542.50
607.78	5587.00
607.90	5575.50
608.03	5706.00
608.15	5613.50
608.27	5605.00
608.40	5534.50
608.52	5589.00
608.65	5554.00
608.77	5585.00
608.89	5547.50
609.02	5693.00
609.14	5672.00
609.27	5595.00
609.39	5634.50
609.52	5565.00
609.64	5518.00
609.76	5579.00
609.89	5582.50
610.01	5665.50
610.14	5632.00
610.26	5588.50
610.38	5566.50
610.51	5621.00
610.63	5594.50
610.76	5562.50
610.88	5596.00
611.01	5617.00
611.13	5714.50
611.25	5659.00
611.38	5599.50
611.50	5620.00
611.63	5630.50
611.75	5612.00
611.87	5593.50
612.00	5561.00
612.12	5657.50
612.25	5628.00
612.37	5570.00
612.49	5626.00
612.62	5609.50
612.74	5625.00
612.87	5603.00
612.99	5607.50
613.11	5551.00
613.24	5604.50
613.36	5604.00
613.49	5602.00
613.61	5616.00
613.73	5615.00
613.86	5652.50
613.98	5582.00
614.11	5601.00
614.23	5620.00
614.35	5603.50
614.48	5643.50
614.60	5595.50
614.72	5624.00
614.85	5612.50
614.97	5590.50
615.10	5616.00
615.22	5588.00
615.34	5608.00
615.47	5657.50
615.59	5581.00
615.72	5597.50
615.84	5611.50
615.96	5569.00
616.09	5692.50
616.21	5598.00
616.34	5592.50
616.46	5623.50
616.58	5610.50
616.71	5642.00
616.83	5620.00
616.95	5631.00
617.08	5603.50
617.20	5605.00
617.33	5548.50
617.45	5546.00
617.57	5598.00
617.70	5629.00
617.82	5576.50
617.95	5604.00
618.07	5671.00
618.19	5619.50
618.32	5610.50
618.44	5613.50
618.56	5562.50
618.69	5530.00
618.81	5523.00
618.94	5662.00
619.06	5563.50
619.18	5577.00
619.31	5498.00
619.43	5558.00
619.55	5630.00
619.68	5608.00
619.80	5522.00
619.92	5620.50
620.05	5759.00
620.17	5688.00
620.30	5575.00
620.42	5586.50
620.54	5649.00
620.67	5606.00
620.79	5636.50
620.91	5604.50
621.04	5648.50
621.16	5595.00
621.29	5610.00
621.41	5550.50
621.53	5569.00
621.66	5604.50
621.78	5552.50
621.90	5628.00
622.03	5676.50
622.15	5597.00
622.27	5581.50
622.40	5572.50
622.52	5541.50
622.64	5593.50
622.77	5558.50
622.89	5644.00
623.02	5663.50
623.14	5658.00
623.26	5612.00
623.39	5619.50
623.51	5662.50
623.63	5582.00
623.76	5520.00
623.88	5658.00
624.00	5573.50
624.13	5546.00
624.25	5539.00
624.37	5536.00
624.50	5621.50
624.62	5626.50
624.75	5500.00
624.87	5539.50
624.99	5629.50
625.12	5586.00
625.24	5544.00
625.36	5669.50
625.49	5610.00
625.61	5565.50
625.73	5585.00
625.86	5618.00
625.98	5527.00
626.10	5521.50
626.23	5501.50
626.35	5600.50
626.47	5584.00
626.60	5547.50
626.72	5491.00
626.84	5554.50
626.97	5588.50
627.09	5536.50
627.21	5556.50
627.34	5644.00
627.46	5684.50
627.58	5546.00
627.71	5534.00
627.83	5604.00
627.95	5474.00
628.08	5546.00
628.20	5559.00
628.32	5497.50
628.45	5452.00
628.57	5491.00
628.69	5489.50
628.82	5559.50
628.94	5562.50
629.06	5488.50
629.19	5518.50
629.31	5572.00
629.43	5521.50
629.56	5534.50
629.68	5527.00
629.80	5610.50
629.93	5510.00
630.05	5508.50
630.17	5480.00
630.30	5530.00
630.42	5491.00
630.54	5544.50
630.67	5540.00
630.79	5501.00
630.91	5656.00
631.04	5496.00
631.16	5563.50
631.28	5527.00
631.41	5493.00
631.53	5458.50
631.65	5490.50
631.78	5557.50
631.90	5510.50
632.02	5519.50
632.14	5405.00
632.27	5581.50
632.39	5532.00
632.51	5468.00
632.64	5551.50
632.76	5522.50
632.88	5489.50
633.01	5500.00
633.13	5460.50
633.25	5512.50
633.38	5656.00
633.50	5471.50
633.62	5438.50
633.75	5390.50
633.87	5409.50
633.99	5480.50
634.11	5405.50
634.24	5480.00
634.36	5483.50
634.48	5470.50
634.61	5492.50
634.73	5537.50
634.85	5407.00
634.98	5442.50
635.10	5457.50
635.22	5506.00
635.35	5590.50
635.47	5467.00
635.59	5476.50
635.71	5487.00
635.84	5540.50
635.96	5459.00
636.08	5517.50
636.21	5471.00
636.33	5489.00
636.45	5450.00
636.58	5466.50
636.70	5393.00
636.82	5491.50
636.94	5420.50
637.07	5413.50
637.19	5520.00
637.31	5495.00
637.44	5470.50
637.56	5412.00
637.68	5457.00
637.81	5465.00
637.93	5482.00
638.05	5407.50
638.17	5474.00
638.30	5572.50
638.42	5417.50
638.54	5383.00
638.67	5437.50
638.79	5508.50
638.91	5429.50
639.03	5393.00
639.16	5432.50
639.28	5446.00
639.40	5429.00
639.53	5381.50
639.65	5460.00
639.77	5437.00
639.89	5451.00
640.02	5479.50
640.14	5438.50
640.26	5367.50
640.39	5489.00
640.51	5363.00
640.63	5464.50
640.75	5484.50
640.88	5431.00
641.00	5427.00
641.12	5422.50
641.24	5502.00
641.37	5428.50
641.49	5381.00
641.61	5497.50
641.74	5395.50
641.86	5398.00
641.98	5382.00
642.10	5446.00
642.23	5424.50
642.35	5424.50
642.47	5401.00
642.60	5424.00
642.72	5438.50
642.84	5358.00
642.96	5360.50
643.09	5358.00
643.21	5399.00
643.33	5365.00
643.45	5337.50
643.58	5444.00
643.70	5483.00
643.82	5386.00
643.94	5409.00
644.07	5418.50
644.19	5421.50
644.31	5441.50
644.44	5447.00
644.56	5420.00
644.68	5357.00
644.80	5306.00
644.93	5355.00
645.05	5386.50
645.17	5408.00
645.29	5398.00
645.42	5371.00
645.54	5366.50
645.66	5448.00
645.78	5368.50
645.91	5357.00
646.03	5390.50
646.15	5426.50
646.27	5367.50
646.40	5425.00
646.52	5433.50
646.64	5443.00
646.76	5390.50
646.89	5314.00
647.01	5395.00
647.13	5365.00
647.25	5426.50
647.38	5365.50
647.50	5355.00
647.62	5417.50
647.74	5329.50
647.87	5319.00
647.99	5369.00
648.11	5377.00
648.23	5328.00
648.36	5282.50
648.48	5387.50
648.60	5328.50
648.72	5305.00
648.85	5310.50
648.97	5344.00
649.09	5372.50
649.21	5329.00
649.34	5350.50
649.46	5356.00
649.58	5397.00
649.70	5366.00
649.83	5327.00
649.95	5374.50
650.07	5416.50
650.19	5390.50
650.32	5348.50
650.44	5404.50
650.56	5370.50
650.68	5366.00
650.81	5310.00
650.93	5304.50
651.05	5369.50
651.17	5292.50
651.29	5327.00
651.42	5296.00
651.54	5351.50
651.66	5296.00
651.78	5272.00
651.91	5394.00
652.03	5474.00
652.15	5333.00
652.27	5284.00
652.40	5354.00
652.52	5274.00
652.64	5306.00
652.76	5311.00
652.88	5396.50
653.01	5322.00
653.13	5296.50
653.25	5259.50
653.37	5341.00
653.50	5360.00
653.62	5337.00
653.74	5262.00
653.86	5318.50
653.98	5297.00
654.11	5284.00
654.23	5297.00
654.35	5307.50
654.47	5458.00
654.60	5317.00
654.72	5263.00
654.84	5246.00
654.96	5313.50
655.08	5262.50
655.21	5269.00
655.33	5300.50
655.45	5381.50
655.57	5330.50
655.70	5326.00
655.82	5346.00
655.94	5345.00
656.06	5312.50
656.18	5258.00
656.31	5334.50
656.43	5310.50
656.55	5250.00
656.67	5304.00
656.79	5272.50
656.92	5344.00
657.04	5290.00
657.16	5266.50
657.28	5395.00
657.40	5299.50
657.53	5308.00
657.65	5191.50
657.77	5324.00
657.89	5316.50
658.01	5211.50
658.14	5242.00
658.26	5302.50
658.38	5240.00
658.50	5206.00
658.62	5258.50
658.75	5374.00
658.87	5302.50
658.99	5270.50
659.11	5156.00
659.23	5295.00
659.36	5375.50
659.48	5293.50
659.60	5278.00
659.72	5268.00
659.84	5277.50
659.97	5290.00
660.09	5264.50
660.21	5369.00
660.33	5266.50
660.45	5194.00
660.58	5147.50
660.70	5198.50
660.82	5203.50
660.94	5143.00
661.06	5182.50
661.19	5252.50
661.31	5230.50
661.43	5182.50
661.55	5203.00
661.67	5241.50
661.80	5285.00
661.92	5179.00
662.04	5240.00
662.16	5212.00
662.28	5287.50
662.40	5209.50
662.53	5161.50
662.65	5190.00
662.77	5129.50
662.89	5179.00
663.01	5165.50
663.14	5140.50
663.26	5229.50
663.38	5174.00
663.50	5096.50
663.62	5123.50
663.74	5161.00
663.87	5158.50
663.99	5191.00
664.11	5204.00
664.23	5286.50
664.35	5112.50
664.48	5138.00
664.60	5158.00
664.72	5137.00
664.84	5101.50
664.96	5115.00
665.08	5190.50
665.21	5189.00
665.33	5180.50
665.45	5063.00
665.57	5118.00
665.69	5173.50
665.81	5064.00
665.94	5047.50
666.06	5104.50
666.18	5164.50
666.30	5123.50
666.42	5055.00
666.54	5114.50
666.67	5116.50
666.79	5036.00
666.91	5136.00
667.03	5063.50
667.15	5056.50
667.27	5063.50
667.40	5060.00
667.52	5103.00
667.64	5093.00
667.76	5059.00
667.88	5057.00
668.00	5101.00
668.13	5080.00
668.25	5013.50
668.37	5015.00
668.49	5068.50
668.61	5106.50
668.73	5074.00
668.85	5103.00
668.98	5066.50
669.10	5068.50
669.22	5045.50
669.34	5017.00
669.46	5064.50
669.58	4990.00
669.71	5038.50
669.83	5022.00
669.95	5022.00
670.07	4999.00
670.19	5031.50
670.31	5071.00
670.43	5041.50
670.56	5065.00
670.68	5073.00
670.80	5053.50
670.92	5059.00
671.04	5098.50
671.16	5034.50
671.28	5004.00
671.41	5019.50
671.53	5077.50
671.65	4999.50
671.77	5034.00
671.89	5236.00
672.01	5130.50
672.13	5053.50
672.26	4916.00
672.38	5022.00
672.50	4989.00
672.62	4989.00
672.74	5019.50
672.86	5002.50
672.98	5026.50
673.11	4983.50
673.23	5003.00
673.35	5049.50
673.47	4998.00
673.59	4956.50
673.71	4945.50
673.83	5006.00
673.96	5095.00
674.08	4971.00
674.20	4926.50
674.32	4967.00
674.44	4980.50
674.56	4971.50
674.68	4979.00
674.80	5048.50
674.93	4985.00
675.05	4947.50
675.17	4996.00
675.29	5026.50
675.41	4982.00
675.53	4978.50
675.65	4943.50
675.77	5002.00
675.90	4998.50
676.02	4929.00
676.14	4932.00
676.26	5042.50
676.38	5053.50
676.50	4937.50
676.62	4975.00
676.74	4928.00
676.87	4942.50
676.99	4993.50
677.11	5006.50
677.23	4990.00
677.35	4961.50
677.47	4934.00
677.59	4949.50
677.71	4966.50
677.83	4952.00
677.96	4955.50
678.08	4970.00
678.20	4951.50
678.32	4906.00
678.44	4942.50
678.56	4938.50
678.68	5096.50
678.80	4969.00
678.93	4914.50
679.05	4907.00
679.17	4934.00
679.29	4980.50
679.41	4899.50
679.53	4886.50
679.65	4904.00
679.77	4930.00
679.89	4887.00
680.01	4923.00
680.14	4962.50
680.26	4875.00
680.38	4869.00
680.50	4952.00
680.62	5017.50
680.74	4950.00
680.86	4919.00
680.98	4880.00
681.10	4915.50
681.22	5022.50
681.35	4876.50
681.47	4889.50
681.59	4848.00
681.71	5009.00
681.83	4890.00
681.95	4870.00
682.07	4954.00
682.19	4918.00
682.31	4880.50
682.43	4870.00
682.56	4988.00
682.68	4832.00
682.80	4852.50
682.92	4911.50
683.04	4912.50
683.16	4893.00
683.28	4853.00
683.40	4916.00
683.52	4856.00
683.64	4910.50
683.76	4879.50
683.89	4884.00
684.01	4924.00
684.13	4991.00
684.25	4870.50
684.37	4862.50
684.49	4903.50
684.61	4877.00
684.73	4944.00
684.85	4867.00
684.97	4869.50
685.09	4956.00
685.21	4863.00
685.34	4884.00
685.46	5055.50
685.58	4923.50
685.70	4900.00
685.82	4905.50
685.94	4843.00
686.06	4840.50
686.18	4816.50
686.30	4874.50
686.42	4860.00
686.54	4937.00
686.66	4854.50
686.79	4957.50
686.91	4896.50
687.03	5043.50
687.15	4929.50
687.27	4869.00
687.39	4875.50
687.51	4948.00
687.63	4891.00
687.75	4928.50
687.87	4912.00
687.99	4978.00
688.11	4860.00
688.23	4888.00
688.35	4944.00
688.48	4892.00
688.60	4855.50
688.72	4868.50
688.84	4911.00
688.96	4915.50
689.08	4859.00
689.20	4883.00
689.32	4977.00
689.44	4908.50
689.56	4846.00
689.68	4860.50
689.80	4880.50
689.92	4849.00
690.04	4872.00
690.16	4899.00
690.28	4929.00
690.41	4906.00
690.53	4834.00
690.65	4916.50
690.77	4952.50
690.89	4946.00
691.01	4903.00
691.13	4875.00
691.25	4870.00
691.37	4874.50
691.49	4849.00
691.61	4833.00
691.73	5022.00
691.85	4905.00
691.97	4841.50
692.09	4869.00
692.21	4916.00
692.33	4964.50
692.45	4904.50
692.57	4841.50
692.70	4873.00
692.82	4905.00
692.94	4842.00
693.06	4855.00
693.18	4870.00
693.30	4833.00
693.42	4871.00
693.54	4912.50
693.66	4928.50
693.78	4950.00
693.90	4919.00
694.02	4905.00
694.14	4934.50
694.26	4929.00
694.38	4917.50
694.50	4927.00
694.62	4888.50
694.74	4843.00
694.86	4883.00
694.98	4925.50
695.10	4928.00
695.22	4964.50
695.34	4900.00
695.46	4848.00
695.58	4860.50
695.71	4916.50
695.83	4910.50
695.95	4898.50
696.07	4985.50
696.19	4870.00
696.31	4869.00
696.43	4836.00
696.55	4977.50
696.67	4931.50
696.79	4897.00
696.91	4946.00
697.03	4895.00
697.15	5021.00
697.27	4936.50
697.39	4884.00
697.51	4994.00
697.63	4859.50
697.75	4883.00
697.87	4918.50
697.99	4897.50
698.11	4824.50
698.23	4862.00
698.35	4886.00
698.47	4882.00
698.59	4956.50
698.71	4923.50
698.83	4996.00
698.95	4864.50
699.07	4927.50
699.19	4900.50
699.31	4923.50
699.43	4879.50
699.55	4946.50
699.67	4883.00
699.79	4878.00
699.91	4899.50
700.03	4924.50
700.15	4939.00
700.27	4881.00
700.39	4901.50
700.51	4849.00
700.63	4893.00
700.75	4925.00
700.87	4934.50
700.99	4893.50
701.11	4890.50
701.24	4919.00
701.36	4995.50
701.48	5009.00
701.60	5010.50
701.72	4903.00
701.84	4986.50
701.96	4960.50
702.08	4919.50
702.20	5017.50
702.32	4946.50
702.44	5005.00
702.56	4918.50
702.68	4913.00
702.80	4910.00
702.92	5064.50
703.04	4985.00
703.16	4947.50
703.28	4981.50
703.40	4911.50
703.52	4996.00
703.64	4939.00
703.76	4962.00
703.88	4946.00
704.00	4923.50
704.12	4940.50
704.24	5004.00
704.36	4943.50
704.48	4949.00
704.60	4913.50
704.72	4941.00
704.84	4930.00
704.96	4974.50
705.07	4970.50
705.19	4915.00
705.31	4987.00
705.43	4976.50
705.55	4906.00
705.67	4984.00
705.79	4978.00
705.91	4872.00
706.03	4948.00
706.15	4949.50
706.27	4902.00
706.39	4895.00
706.51	4903.00
706.63	4926.50
706.75	4962.50
706.87	4926.50
706.99	5044.50
707.11	4942.00
707.23	4906.50
707.35	4976.50
707.47	4923.00
707.59	5000.00
707.71	5008.00
707.83	4934.00
707.95	5014.00
708.07	4940.50
708.19	5045.00
708.31	4971.50
708.43	4918.00
708.55	4970.00
708.67	5009.50
708.79	4960.00
708.91	4946.50
709.03	4968.00
709.15	5015.00
709.27	4915.00
709.39	4965.50
709.51	4977.00
709.63	4984.00
709.75	5019.00
709.87	4917.00
709.99	5014.50
710.11	4944.50
710.23	4924.50
710.35	4952.50
710.47	5078.00
710.58	5040.50
710.70	5023.50
710.82	5033.50
710.94	4981.00
711.06	4950.00
711.18	4949.50
711.30	4916.00
711.42	5020.50
711.54	4955.00
711.66	5020.50
711.78	4953.00
711.90	5037.50
712.02	5046.00
712.14	4937.00
712.26	4881.00
712.38	4993.50
712.50	5040.00
712.62	4953.50
712.74	4926.00
712.86	4944.00
712.98	5007.50
713.10	4944.50
713.22	4916.50
713.34	4997.00
713.45	4951.50
713.57	4984.00
713.69	4957.00
713.81	4928.00
713.93	4947.50
714.05	4961.50
714.17	4905.00
714.29	5022.00
714.41	5026.00
714.53	4980.50
714.65	4976.00
714.77	4963.00
714.89	4914.00
715.01	4995.50
715.13	4934.50
715.25	4944.00
715.37	4933.50
715.49	4932.50
715.61	4984.50
715.72	4972.50
715.84	5012.50
715.96	4967.00
716.08	4916.50
716.20	5010.00
716.32	5003.50
716.44	4953.50
716.56	4923.50
716.68	4953.00
716.80	5053.50
716.92	5015.50
717.04	4952.00
717.16	4916.00
717.28	4934.50
717.40	4952.00
717.52	4968.00
717.63	4942.50
717.75	4937.50
717.87	4952.00
717.99	4912.00
718.11	4906.50
718.23	5029.00
718.35	4958.00
718.47	4965.50
718.59	4900.00
718.71	4914.50
718.83	4901.50
718.95	4932.00
719.07	4858.50
719.19	4936.50
719.30	4920.00
719.42	4944.50
719.54	4930.00
719.66	4912.50
719.78	4928.00
719.90	4857.00
720.02	4930.00
720.14	4898.00
720.26	4929.50
720.38	4910.00
720.50	4881.00
720.62	4836.00
720.74	4903.50
720.85	4863.00
720.97	5011.00
721.09	5028.50
721.21	4885.00
721.33	5009.00
721.45	4929.50
721.57	4932.50
721.69	4848.50
721.81	4771.00
721.93	4931.50
722.05	4921.00
722.16	4881.00
722.28	4875.00
722.40	4873.50
722.52	4944.50
722.64	4937.50
722.76	4888.00
722.88	4929.50
723.00	4948.00
723.12	4858.00
723.24	4883.50
723.36	4826.50
723.47	4959.00
723.59	4887.00
723.71	4822.00
723.83	4892.50
723.95	4854.00
724.07	4875.00
724.19	4932.50
724.31	4962.50
724.43	4851.50
724.55	4827.00
724.66	4847.00
724.78	5004.00
724.90	4838.50
725.02	4861.50
725.14	4866.50
725.26	4894.00
725.38	4770.50
725.50	4873.00
725.62	4888.50
725.74	4877.50
725.85	4891.00
725.97	4894.00
726.09	4933.50
726.21	5221.00
726.33	4928.00
726.45	4897.00
726.57	4879.00
726.69	4916.00
726.81	4890.50
726.92	4867.50
727.04	4904.00
727.16	4903.00
727.28	4880.50
727.40	4875.50
727.52	4874.00
727.64	5018.50
727.76	4972.50
727.88	4927.50
727.99	4831.50
728.11	4818.00
728.23	4880.50
728.35	4863.50
728.47	4878.00
728.59	4897.50
728.71	4905.50
728.83	4914.50
728.94	4893.50
729.06	4964.00
729.18	4965.00
729.30	4915.50
729.42	4893.00
729.54	4999.00
729.66	4971.50
729.78	4869.00
729.90	4899.00
730.01	4867.50
730.13	4790.50
730.25	4835.00
730.37	4856.50
730.49	4909.00
730.61	4883.00
730.73	4843.50
730.84	4876.50
730.96	4851.50
731.08	4917.00
731.20	4843.50
731.32	4855.50
731.44	5034.50
731.56	4863.50
731.68	4806.50
731.79	4885.00
731.91	4863.50
732.03	4843.50
732.15	4879.00
732.27	4841.50
732.39	4843.00
732.51	4875.50
732.62	4818.00
732.74	4812.50
732.86	4905.50
732.98	4878.00
733.10	4787.50
733.22	4832.00
733.34	4896.00
733.45	4795.50
733.57	4823.50
733.69	4788.00
733.81	4822.50
733.93	4862.50
734.05	4764.00
734.17	4862.50
734.28	4813.00
734.40	4801.00
734.52	4790.00
734.64	4794.50
734.76	4926.00
734.88	4820.00
735.00	4796.00
735.11	4816.00
735.23	4876.00
735.35	4785.50
735.47	4762.00
735.59	4843.50
735.71	4802.50
735.83	4848.00
735.94	4855.50
736.06	4836.00
736.18	4846.00
736.30	4869.50
736.42	4818.00
736.54	4812.50
736.65	4818.50
736.77	4986.50
736.89	4885.50
737.01	4852.00
737.13	4914.50
737.25	4683.00
737.36	4766.00
737.48	4804.00
737.60	4768.50
737.72	4761.00
737.84	4755.00
737.96	4856.00
738.08	4767.00
738.19	4877.50
738.31	4781.50
738.43	4803.00
738.55	4835.00
738.67	4812.00
738.79	4744.00
738.90	4764.50
739.02	4805.00
739.14	4728.00
739.26	4743.00
739.38	4726.00
739.50	4800.00
739.61	4725.00
739.73	4743.50
739.85	4746.00
739.97	4774.50
740.09	4844.00
740.20	4662.00
740.32	4761.00
740.44	4770.00
740.56	4715.50
740.68	4703.50
740.80	4705.50
740.91	4728.00
741.03	4809.50
741.15	4765.50
741.27	4733.50
741.39	4782.50
741.51	4752.00
741.62	4795.00
741.74	4725.50
741.86	4736.00
741.98	4697.50
742.10	4754.00
742.21	4723.50
742.33	4743.00
742.45	4699.50
742.57	4789.50
742.69	4673.50
742.80	4784.00
742.92	4725.50
743.04	4718.00
743.16	4675.00
743.28	4791.00
743.40	4633.50
743.51	4659.50
743.63	4630.00
743.75	4651.00
743.87	4675.00
743.99	4715.50
744.10	4706.50
744.22	4677.50
744.34	4689.00
744.46	4666.50
744.58	4678.50
744.69	4603.50
744.81	4660.50
744.93	4639.50
745.05	4585.00
745.17	4752.00
745.28	4724.50
745.40	4694.50
745.52	4664.50
745.64	4631.00
745.76	4697.00
745.87	4634.50
745.99	4633.00
746.11	4667.00
746.23	4597.00
746.35	4610.50
746.46	4628.00
746.58	4765.00
746.70	4663.00
746.82	4616.50
746.94	4642.00
747.05	4563.50
747.17	4596.00
747.29	4580.50
747.41	4588.00
747.53	4704.00
747.64	4581.50
747.76	4656.50
747.88	4661.00
748.00	4640.00
748.12	4613.00
748.23	4579.00
748.35	4614.00
748.47	4624.00
748.59	4591.00
748.70	4562.50
748.82	4540.00
748.94	4576.00
749.06	4559.50
749.18	4562.00
749.29	4537.00
749.41	4585.00
749.53	4553.50
749.65	4535.00
749.76	4627.50
749.88	4525.00
750.00	4567.00
750.12	4615.50
750.24	4546.00
750.35	4564.50
750.47	4494.00
750.59	4557.50
750.71	4523.50
750.82	4573.50
750.94	4526.00
751.06	4512.00
751.18	4499.50
751.30	4543.50
751.41	4582.50
751.53	4562.00
751.65	4459.50
751.77	4467.00
751.88	4556.00
752.00	4530.50
752.12	4415.50
752.24	4575.00
752.35	4507.00
752.47	4524.50
752.59	4528.50
752.71	4575.50
752.83	4452.50
752.94	4572.50
753.06	4458.50
753.18	4491.50
753.30	4436.00
753.41	4392.50
753.53	4425.00
753.65	4428.50
753.77	4513.00
753.88	4435.50
754.00	4446.00
754.12	4481.50
754.24	4503.50
754.35	4438.50
754.47	4368.50
754.59	4499.50
754.71	4438.00
754.82	4423.00
754.94	4378.50
755.06	4501.00
755.18	4421.00
755.29	4415.00
755.41	4326.50
755.53	4437.00
755.65	4349.00
755.76	4375.50
755.88	4349.00
756.00	4458.50
756.12	4375.00
756.23	4252.00
756.35	4333.00
756.47	4393.50
756.59	4353.50
756.70	4321.00
756.82	4344.00
756.94	4318.50
757.06	4362.50
757.17	4338.50
757.29	4327.50
757.41	4309.00
757.53	4332.50
757.64	4326.50
757.76	4312.00
757.88	4363.50
758.00	4380.00
758.11	4318.50
758.23	4290.50
758.35	4315.00
758.47	4262.50
758.58	4322.00
758.70	4259.50
758.82	4287.00
758.94	4255.50
759.05	4300.00
759.17	4247.50
759.29	4281.00
759.40	4358.50
759.52	4258.00
759.64	4293.50
759.76	4285.50
759.87	4304.00
759.99	4268.50
760.11	4250.00
760.23	4241.00
760.34	4296.00
760.46	4255.00
760.58	4239.50
760.70	4256.00
760.81	4249.50
760.93	4262.50
761.05	4235.50
761.16	4207.50
761.28	4214.50
761.40	4206.50
761.52	4162.00
761.63	4251.00
761.75	4197.50
761.87	4181.00
761.98	4170.50
762.10	4230.50
762.22	4176.00
762.34	4213.50
762.45	4175.50
762.57	4242.00
762.69	4313.00
762.81	4137.00
762.92	4210.50
763.04	4106.00
763.16	4185.50
763.27	4202.00
763.39	4161.50
763.51	4179.50
763.63	4174.50
763.74	4108.50
763.86	4057.00
763.98	4099.00
764.09	4122.00
764.21	4148.50
764.33	4080.00
764.44	4086.50
764.56	4107.00
764.68	4100.50
764.80	4111.00
764.91	4037.50
765.03	4134.00
765.15	4072.50
765.26	4074.00
765.38	4024.50
765.50	4129.00
765.62	4075.50
765.73	4070.00
765.85	4067.50
765.97	4041.00
766.08	4082.00
766.20	4040.00
766.32	4063.50
766.43	4101.50
766.55	4100.50
766.67	4031.50
766.79	4034.00
766.90	3996.00
767.02	3974.50
767.14	3978.50
767.25	3977.00
767.37	4131.50
767.49	4045.00
767.60	4026.50
767.72	4078.50
767.84	4032.50
767.95	3987.00
768.07	3925.50
768.19	4003.50
768.31	4018.00
768.42	3988.00
768.54	3968.00
768.66	3962.00
768.77	4018.50
768.89	3954.50
769.01	3953.00
769.12	3991.00
769.24	3976.50
769.36	3910.00
769.47	3886.00
769.59	3884.50
769.71	3959.50
769.82	3925.00
769.94	3905.50
770.06	3899.50
770.17	3982.50
770.29	3929.00
770.41	3933.00
770.53	3967.50
770.64	3879.50
770.76	3942.50
770.88	3933.00
770.99	3938.50
771.11	3842.00
771.23	3881.00
771.34	3860.00
771.46	3984.00
771.58	3894.50
771.69	3899.50
771.81	3854.50
771.93	3889.00
772.04	3833.50
772.16	3885.00
772.28	3825.00
772.39	3860.00
772.51	3831.50
772.63	3850.50
772.74	3814.50
772.86	3808.50
772.98	3939.00
773.09	3763.50
773.21	3784.00
773.33	3808.50
773.44	3841.00
773.56	3790.00
773.68	3797.50
773.79	3810.50
773.91	3769.00
774.03	3779.50
774.14	3797.50
774.26	3816.00
774.38	3727.50
774.49	3731.00
774.61	3745.50
774.73	3744.50
774.84	3742.00
774.96	3685.00
775.08	3709.50
775.19	3801.50
775.31	3781.00
775.43	3732.00
775.54	3699.00
775.66	3659.00
775.77	3751.50
775.89	3690.00
776.01	3733.00
776.12	3732.50
776.24	3722.00
776.36	3655.50
776.47	3668.50
776.59	3720.50
776.71	3709.00
776.82	3608.00
776.94	3650.00
777.06	3654.00
777.17	3715.50
777.29	3632.50
777.41	3619.50
777.52	3699.50
777.64	3627.00
777.75	3677.50
777.87	3578.00
777.99	3614.50
778.10	3715.00
778.22	3606.00
778.34	3610.50
778.45	3637.50
778.57	3676.00
778.69	3634.50
778.80	3625.00
778.92	3709.00
779.04	3580.00
779.15	3614.00
779.27	3631.50
779.38	3632.00
779.50	3639.50
779.62	3538.50
779.73	3556.50
779.85	3504.00
779.97	3667.50
780.08	3554.00
780.20	3554.50
780.31	3587.50
780.43	3605.00
780.55	3506.50
780.66	3509.50
780.78	3566.00
780.90	3638.00
781.01	3488.50
781.13	3528.50
781.25	3507.50
781.36	3573.00
781.48	3494.00
781.59	3499.00
781.71	3504.50
781.83	3520.50
781.94	3488.00
782.06	3463.00
782.18	3543.50
782.29	3450.50
782.41	3412.00
782.52	3518.50
782.64	3498.00
782.76	3463.50
782.87	3483.50
782.99	3447.00
783.10	3584.00
783.22	3589.50
783.34	3426.50
783.45	3446.00
783.57	3443.50
783.69	3407.00
783.80	3451.50
783.92	3441.50
784.03	3401.50
784.15	3392.00
784.27	3373.00
784.38	3401.00
784.50	3372.50
784.61	3400.50
784.73	3358.00
784.85	3349.00
784.96	3327.50
785.08	3417.00
785.19	3410.50
785.31	3400.50
785.43	3352.50
785.54	3316.00
785.66	3378.00
785.77	3375.50
785.89	3385.00
786.01	3342.50
786.12	3354.50
786.24	3318.50
786.35	3404.50
786.47	3350.50
786.59	3334.50
786.70	3303.00
786.82	3321.50
786.93	3290.50
787.05	3304.50
787.17	3329.50
787.28	3306.50
787.40	3326.50
787.51	3327.50
787.63	3310.50
787.75	3256.50
787.86	3289.50
787.98	3309.00
788.09	3281.00
788.21	3305.00
788.33	3316.50
788.44	3304.00
788.56	3230.50
788.67	3316.50
788.79	3255.00
788.91	3275.50
789.02	3254.00
789.14	3253.50
789.25	3344.50
789.37	3258.00
789.48	3196.50
789.60	3220.50
789.72	3178.00
789.83	3252.00
789.95	3218.50
790.06	3167.50
790.18	3178.00
790.30	3235.00
790.41	3231.50
790.53	3173.00
790.64	3145.00
790.76	3150.50
790.87	3165.00
790.99	3205.00
791.11	3193.00
791.22	3170.50
791.34	3143.00
791.45	3203.50
791.57	3182.00
791.68	3150.00
791.80	3151.50
791.92	3195.50
792.03	3133.50
792.15	3063.50
792.26	3132.00
792.38	3105.00
792.49	3148.50
792.61	3136.50
792.73	3130.50
792.84	3113.50
792.96	3204.00
793.07	3101.00
793.19	3915.50
793.30	3198.50
793.42	3139.00
793.54	3030.00
793.65	3050.00
793.77	3235.50
793.88	3065.50
794.00	3039.50
794.11	3071.00
794.23	3006.50
794.34	3089.50
794.46	2993.50
794.58	2986.50
794.69	3150.00
794.81	3129.50
794.92	3017.50
795.04	3011.00
795.15	3109.00
795.27	3078.00
795.39	3064.00
795.50	3008.00
795.62	3012.00
795.73	3019.00
795.85	3005.50
795.96	3030.00
796.08	3082.50
796.19	2966.50
796.31	2988.00
796.42	2964.00
796.54	2973.50
796.66	3030.50
796.77	2941.00
796.89	2930.50
797.00	3059.50
797.12	2903.00
797.23	2946.50
797.35	2960.00
797.46	3015.50
797.58	3033.50
797.69	3001.00
797.81	2924.50
797.93	2936.00
798.04	2927.50
798.16	2906.50
798.27	2942.50
798.39	2886.50
798.50	2895.50
798.62	2878.00
798.73	2874.50
798.85	3004.50
798.96	2943.50
799.08	2955.50
799.19	2948.00
799.31	2921.00
799.43	2898.50
799.54	2881.00
799.66	2918.00
799.77	2923.00
799.89	2833.50
800.00	2828.50
800.12	2875.50
800.23	2945.00
800.35	2949.50
800.46	2817.50
800.58	2775.50
800.69	2849.00
800.81	2835.00
800.92	2793.00
801.04	2868.00
801.16	2791.00
801.27	2801.50
801.39	2795.00
801.50	2807.00
801.62	2808.00
801.73	2851.50
801.85	2859.00
801.96	2756.00
802.08	2884.00
802.19	2860.00
802.31	2784.00
802.42	2816.00
802.54	2862.50
802.65	2866.00
802.77	2767.50
802.88	2808.50
803.00	2726.50
803.11	2888.00
803.23	2777.50
803.34	2778.00
803.46	2799.50
803.57	2742.00
803.69	2819.00
803.80	2739.50
803.92	2814.50
804.03	2746.50
804.15	2775.00
804.26	2781.00
804.38	2770.50
804.50	2712.00
804.61	2756.00
804.73	2729.50
804.84	2765.50
804.96	2670.00
805.07	2718.00
805.19	2677.00
805.30	2731.50
805.42	2758.00
805.53	2685.00
805.65	2646.50
805.76	2634.50
805.88	2632.50
805.99	2642.00
806.11	2666.50
806.22	2607.00
806.34	2612.00
806.45	2590.00
806.57	2601.00
806.68	2650.00
806.80	2551.50
806.91	2551.50
807.03	2549.00
807.14	2522.00
807.26	2513.50
807.37	2484.00
807.49	2532.00
807.60	2508.00
807.72	2619.50
807.83	2580.00
807.95	2545.50
808.06	2535.50
808.17	2468.00
808.29	2485.50
808.40	2429.00
808.52	2452.00
808.63	2447.00
808.75	2459.50
808.86	2410.00
808.98	2425.50
809.09	2373.00
809.21	2398.50
809.32	2351.00
809.44	2405.00
809.55	2304.50
809.67	2361.00
809.78	2303.00
809.90	2334.50
810.01	2389.50
810.13	2291.50
810.24	2311.00
810.36	2240.50
810.47	2289.50
810.59	2280.50
810.70	2256.50
810.82	2267.00
810.93	2165.50
811.05	2178.50
811.16	2175.50
811.27	2162.50
811.39	2165.00
811.50	2213.50
811.62	2110.50
811.73	2071.50
811.85	2149.50
811.96	2116.50
812.08	2128.50
812.19	2115.00
812.31	2122.00
812.42	2082.00
812.54	2046.00
812.65	2114.00
812.77	2098.00
812.88	2085.50
813.00	2064.00
813.11	2042.50
813.22	1963.50
813.34	1975.00
813.45	1986.50
813.57	2057.00
813.68	2066.50
813.80	1955.50
813.91	1903.00
814.03	1915.00
814.14	2001.50
814.26	1870.00
814.37	1898.50
814.49	1878.50
814.60	1845.00
814.71	1837.00
814.83	1851.00
814.94	1788.50
815.06	1812.00
815.17	1804.00
815.29	1809.00
815.40	1752.50
815.52	1864.00
815.63	1771.50
815.75	1741.00
815.86	1773.00
815.97	1715.00
816.09	1747.00
816.20	1758.00
816.32	1746.00
816.43	1642.50
816.55	1723.00
816.66	1686.00
816.78	1776.50
816.89	1685.50
817.00	1675.00
817.12	1630.00
817.23	1621.00
817.35	1662.50
817.46	1637.50
817.58	1574.00
817.69	1689.00
817.81	1589.50
817.92	1624.50
818.03	1571.00
818.15	1569.00
818.26	1529.50
818.38	1497.00
818.49	1526.00
818.61	1533.50
818.72	1478.50
818.83	2767.50
818.95	1652.00
819.06	1466.50
819.18	1477.50
819.29	1479.50
819.41	1462.00
819.52	1468.00
819.64	1431.00
819.75	1395.00
819.86	1383.50
819.98	1395.50
820.09	1425.50
820.21	1384.50
820.32	1351.50
820.44	1394.50
820.55	1444.00
820.66	1337.50
820.78	1392.00
820.89	1336.00
821.01	1350.50
821.12	1315.50
821.23	1322.00
821.35	1283.50
821.46	1340.50
821.58	1286.00
821.69	1277.00
821.81	1243.50
821.92	1325.00
822.03	1247.00
822.15	1256.50
822.26	1195.00
822.38	1198.50
822.49	1242.50
822.61	1218.00
822.72	1233.00
822.83	1264.50
822.95	1183.50
823.06	1181.50
823.18	1217.50
823.29	1250.00
823.40	1177.00
823.52	1145.00
823.63	1101.50
823.75	1233.00
823.86	1128.50
823.97	1073.00
824.09	1144.00
824.20	1053.50
824.32	1096.50
824.43	1065.00
824.55	1121.50
824.66	1181.50
824.77	1057.00
824.89	1078.50
825.00	1130.00
825.12	1071.50
825.23	1067.50
825.34	988.00
825.46	998.00
825.57	1071.50
825.69	1006.50
825.80	932.50
825.91	965.50
826.03	947.00
826.14	1002.50
826.26	955.00
826.37	978.00
826.48	953.50
826.60	973.00
826.71	929.00
826.83	962.50
826.94	960.00
827.05	985.00
827.17	973.00
827.28	913.50
827.39	911.50
827.51	879.00
827.62	899.00
827.74	907.00
827.85	886.50
827.96	868.50
828.08	887.00
828.19	996.00
828.31	881.50
828.42	820.00
828.53	886.50
828.65	930.00
828.76	933.00
828.87	897.00
828.99	835.50
