Wavelength (nm)	Intensity
377.35	851.75
377.48	612.00
377.62	593.00
377.75	628.75
377.88	839.25
378.02	823.25
378.15	822.00
378.28	796.50
378.41	880.75
378.55	838.75
378.68	822.25
378.81	803.00
378.95	836.00
379.08	826.75
379.21	787.50
379.35	837.75
379.48	852.25
379.61	914.75
379.74	848.50
379.88	829.25
380.01	916.75
380.14	978.50
380.28	892.00
380.41	817.50
380.54	881.75
380.68	891.00
380.81	791.75
380.94	895.25
381.07	932.00
381.21	941.75
381.34	846.25
381.47	794.50
381.61	1002.25
381.74	872.25
381.87	819.75
382.00	875.75
382.14	956.75
382.27	904.50
382.40	837.75
382.54	927.00
382.67	924.25
382.80	834.00
382.93	835.50
383.07	859.00
383.20	865.50
383.33	905.00
383.47	831.00
383.60	822.75
383.73	1016.25
383.86	896.50
384.00	859.50
384.13	847.75
384.26	893.25
384.40	919.00
384.53	855.00
384.66	911.75
384.79	871.00
384.93	848.25
385.06	850.50
385.19	870.75
385.33	993.00
385.46	894.50
385.59	840.00
385.72	874.75
385.86	813.50
385.99	847.00
386.12	840.25
386.25	833.00
386.39	918.25
386.52	927.00
386.65	861.50
386.79	853.25
386.92	846.00
387.05	955.00
387.18	818.75
387.32	831.25
387.45	907.50
387.58	876.25
387.71	854.00
387.85	842.00
387.98	881.75
388.11	900.75
388.25	882.50
388.38	861.75
388.51	910.50
388.64	914.00
388.78	850.25
388.91	824.25
389.04	862.75
389.17	987.75
389.31	875.50
389.44	894.25
389.57	937.50
389.70	901.75
389.84	856.25
389.97	847.50
390.10	856.50
390.24	908.25
390.37	872.50
390.50	855.25
390.63	943.25
390.77	879.50
390.90	882.50
391.03	877.75
391.16	832.50
391.30	858.50
391.43	858.50
391.56	851.50
391.69	844.50
391.83	925.75
391.96	883.50
392.09	862.25
392.22	979.50
392.36	896.50
392.49	836.50
392.62	868.25
392.75	897.75
392.89	949.75
393.02	838.50
393.15	841.75
393.28	838.25
393.42	981.50
393.55	831.00
393.68	865.75
393.81	818.25
393.95	870.00
394.08	855.75
394.21	853.50
394.34	924.25
394.48	913.00
394.61	917.75
394.74	884.00
394.87	930.75
395.01	909.25
395.14	897.75
395.27	843.25
395.40	984.25
395.54	988.25
395.67	891.00
395.80	863.00
395.93	922.00
396.07	866.50
396.20	861.00
396.33	808.50
396.46	882.75
396.59	885.50
396.73	867.50
396.86	849.50
396.99	952.25
397.12	913.00
397.26	899.25
397.39	882.00
397.52	1199.00
397.65	1002.00
397.79	885.75
397.92	870.00
398.05	950.75
398.18	880.00
398.32	890.75
398.45	911.50
398.58	908.00
398.71	923.75
398.84	837.25
398.98	865.00
399.11	918.75
399.24	907.50
399.37	875.25
399.51	849.25
399.64	893.50
399.77	891.50
399.90	886.25
400.03	887.50
400.17	850.00
400.30	955.00
400.43	925.00
400.56	891.75
400.70	896.50
400.83	873.00
400.96	859.25
401.09	895.25
401.23	910.00
401.36	969.00
401.49	876.00
401.62	896.50
401.75	890.50
401.89	878.75
402.02	885.25
402.15	887.00
402.28	915.00
402.41	912.00
402.55	872.00
402.68	891.25
402.81	976.75
402.94	937.75
403.08	875.25
403.21	862.00
403.34	939.75
403.47	938.25
403.60	883.75
403.74	922.50
403.87	943.50
404.00	870.75
404.13	870.25
404.26	852.25
404.40	882.25
404.53	923.50
404.66	883.75
404.79	864.50
404.93	944.50
405.06	918.00
405.19	847.75
405.32	907.00
405.45	932.25
405.59	941.00
405.72	899.50
405.85	884.00
405.98	1089.75
406.11	882.25
406.25	874.25
406.38	891.25
406.51	939.25
406.64	906.50
406.77	856.50
406.91	865.75
407.04	931.50
407.17	908.00
407.30	932.75
407.43	899.75
407.57	992.00
407.70	972.75
407.83	884.25
407.96	904.25
408.09	882.50
408.23	1016.25
408.36	902.00
408.49	890.25
408.62	1038.25
408.75	929.50
408.89	886.25
409.02	933.75
409.15	931.50
409.28	1013.50
409.41	940.75
409.55	891.50
409.68	1056.75
409.81	948.50
409.94	892.00
410.07	916.00
410.20	929.50
410.34	915.50
410.47	924.50
410.60	928.50
410.73	950.75
410.86	901.75
411.00	920.25
411.13	892.00
411.26	941.25
411.39	931.00
411.52	933.25
411.66	918.50
411.79	918.00
411.92	901.75
412.05	917.00
412.18	898.75
412.31	951.75
412.45	964.50
412.58	963.00
412.71	886.00
412.84	952.75
412.97	1012.00
413.11	920.75
413.24	940.25
413.37	972.25
413.50	1044.50
413.63	946.75
413.76	909.00
413.90	971.25
414.03	924.00
414.16	909.25
414.29	953.00
414.42	938.50
414.56	1037.00
414.69	915.25
414.82	920.25
414.95	937.50
415.08	960.75
415.21	931.75
415.35	940.50
415.48	855.50
415.61	990.50
415.74	988.00
415.87	896.00
416.00	957.50
416.14	1062.50
416.27	937.50
416.40	905.00
416.53	943.00
416.66	973.00
416.79	948.00
416.93	902.50
417.06	999.25
417.19	956.75
417.32	918.00
417.45	918.00
417.58	903.50
417.72	994.75
417.85	916.75
417.98	930.50
418.11	988.25
418.24	925.50
418.37	920.50
418.51	942.50
418.64	960.50
418.77	1035.00
418.90	953.25
419.03	901.25
419.16	964.75
419.29	1003.50
419.43	926.75
419.56	908.25
419.69	1063.00
419.82	1017.50
419.95	954.75
420.08	983.50
420.22	1025.00
420.35	1083.50
420.48	985.75
420.61	934.25
420.74	907.00
420.87	994.75
421.00	914.00
421.14	935.00
421.27	999.25
421.40	1035.50
421.53	981.75
421.66	948.00
421.79	962.25
421.93	964.50
422.06	954.00
422.19	928.50
422.32	1011.75
422.45	1023.75
422.58	974.75
422.71	942.50
422.85	1003.25
422.98	1003.50
423.11	912.25
423.24	903.25
423.37	921.75
423.50	947.50
423.63	968.50
423.77	927.75
423.90	936.50
424.03	993.75
424.16	984.50
424.29	955.25
424.42	915.50
424.55	934.75
424.69	915.50
424.82	967.25
424.95	997.75
425.08	947.50
425.21	980.00
425.34	945.00
425.47	971.00
425.60	992.50
425.74	922.00
425.87	953.25
426.00	977.00
426.13	986.50
426.26	938.25
426.39	942.00
426.52	958.00
426.66	1047.25
426.79	994.75
426.92	945.00
427.05	1081.50
427.18	1034.25
427.31	968.00
427.44	961.50
427.57	942.50
427.71	977.50
427.84	934.50
427.97	975.75
428.10	1045.25
428.23	993.00
428.36	964.00
428.49	894.75
428.62	1118.00
428.76	1099.50
428.89	990.25
429.02	940.50
429.15	977.75
429.28	1080.50
429.41	969.25
429.54	982.75
429.67	981.75
429.81	1031.75
429.94	986.75
430.07	967.00
430.20	1030.75
430.33	1067.25
430.46	956.75
430.59	953.25
430.72	993.75
430.85	954.50
430.99	986.75
431.12	959.50
431.25	1062.50
431.38	1080.50
431.51	993.50
431.64	988.00
431.77	1088.25
431.90	1090.50
432.03	995.00
432.17	963.00
432.30	1012.50
432.43	1034.00
432.56	1000.00
432.69	1023.00
432.82	1031.50
432.95	1067.50
433.08	1000.75
433.21	1004.50
433.35	993.75
433.48	1013.75
433.61	964.00
433.74	998.00
433.87	985.50
434.00	1049.75
434.13	984.75
434.26	1032.50
434.39	1048.75
434.53	1056.50
434.66	995.50
434.79	998.75
434.92	999.25
435.05	1077.25
435.18	989.25
435.31	1028.75
435.44	1092.00
435.57	1028.75
435.70	1011.00
435.84	982.00
435.97	1091.25
436.10	1131.50
436.23	1000.00
436.36	988.50
436.49	1007.75
436.62	1055.50
436.75	1016.50
436.88	1040.75
437.01	1005.25
437.14	995.00
437.28	980.25
437.41	1002.50
437.54	1100.00
437.67	1074.25
437.80	1004.00
437.93	978.25
438.06	1165.75
438.19	1089.00
438.32	990.75
438.45	997.75
438.58	1063.00
438.72	1110.75
438.85	1070.50
438.98	1018.25
439.11	1060.25
439.24	1118.75
439.37	1084.75
439.50	1061.75
439.63	1105.25
439.76	1021.50
439.89	1011.25
440.02	1030.00
440.15	1067.75
440.29	1118.75
440.42	1054.75
440.55	1045.50
440.68	1150.50
440.81	1193.00
440.94	1064.75
441.07	1052.75
441.20	1155.75
441.33	1082.00
441.46	1034.25
441.59	1024.75
441.72	1054.50
441.85	1063.50
441.99	1091.75
442.12	1083.25
442.25	1159.25
442.38	1082.25
442.51	1075.25
442.64	1008.75
442.77	1077.00
442.90	1049.50
443.03	1017.75
443.16	1038.00
443.29	1077.25
443.42	1150.75
443.55	1053.00
443.68	1064.75
443.82	1016.00
443.95	1053.75
444.08	1052.75
444.21	1057.00
444.34	1047.75
444.47	1075.25
444.60	1070.50
444.73	1085.25
444.86	1082.75
444.99	1159.00
445.12	1097.25
445.25	1079.50
445.38	1095.75
445.51	1133.25
445.64	1090.75
445.78	1059.75
445.91	1033.00
446.04	1214.50
446.17	1122.00
446.30	1031.00
446.43	1112.50
446.56	1100.25
446.69	1063.50
446.82	1068.25
446.95	1144.00
447.08	1151.25
447.21	1101.50
447.34	1068.25
447.47	1150.00
447.60	1141.00
447.73	1099.75
447.86	1118.00
447.99	1105.75
448.13	1115.75
448.26	1153.25
448.39	1093.25
448.52	1141.50
448.65	1157.25
448.78	1102.25
448.91	1088.25
449.04	1135.50
449.17	1099.75
449.30	1132.00
449.43	1127.50
449.56	1124.00
449.69	1189.00
449.82	1109.75
449.95	1078.75
450.08	1190.00
450.21	1166.50
450.34	1111.50
450.47	1119.25
450.60	1172.25
450.73	1136.25
450.87	1118.00
451.00	1127.50
451.13	1164.75
451.26	1300.00
451.39	1117.50
451.52	1146.00
451.65	1134.00
451.78	1126.75
451.91	1118.25
452.04	1114.00
452.17	1235.25
452.30	1237.00
452.43	1123.00
452.56	1126.00
452.69	1186.00
452.82	1113.50
452.95	1174.75
453.08	1124.50
453.21	1073.25
453.34	1202.25
453.47	1130.00
453.60	1210.25
453.73	1263.00
453.86	1203.50
453.99	1177.50
454.12	1176.75
454.25	1152.25
454.38	1175.25
454.52	1125.75
454.65	1137.25
454.78	1149.75
454.91	1122.00
455.04	1150.25
455.17	1132.00
455.30	1160.50
455.43	1249.25
455.56	1151.50
455.69	1128.25
455.82	1197.00
455.95	1196.50
456.08	1134.25
456.21	1142.00
456.34	1131.00
456.47	1134.50
456.60	1174.00
456.73	1163.25
456.86	1181.25
456.99	1227.00
457.12	1165.50
457.25	1186.00
457.38	1262.25
457.51	1246.25
457.64	1216.00
457.77	1178.00
457.90	1202.75
458.03	1196.25
458.16	1207.00
458.29	1206.00
458.42	1210.00
458.55	1173.00
458.68	1188.50
458.81	1204.25
458.94	1296.00
459.07	1333.00
459.20	1185.25
459.33	1191.00
459.46	1289.50
459.59	1331.50
459.72	1287.25
459.85	1217.00
459.98	1299.75
460.11	1269.00
460.24	1235.50
460.37	1195.50
460.50	1287.00
460.63	1277.50
460.76	1226.75
460.89	1253.50
461.02	1296.25
461.15	1308.00
461.28	1245.00
461.41	1237.50
461.54	1339.75
461.67	1225.25
461.80	1266.25
461.93	1301.75
462.06	1308.50
462.19	1328.50
462.32	1247.50
462.45	1238.00
462.58	1303.25
462.71	1264.50
462.84	1263.50
462.97	1222.25
463.10	1279.75
463.23	1303.50
463.36	1310.50
463.49	1285.50
463.62	1233.75
463.75	1319.25
463.88	1268.75
464.01	1286.50
464.14	1260.75
464.27	1417.00
464.40	1302.25
464.53	1291.50
464.66	1344.50
464.79	1320.50
464.92	1320.00
465.05	1278.00
465.18	1326.00
465.31	1329.50
465.44	1316.25
465.57	1297.50
465.70	1316.50
465.83	1446.50
465.96	1352.50
466.09	1326.75
466.22	1403.00
466.35	1379.00
466.48	1325.25
466.61	1329.00
466.74	1358.00
466.87	1414.50
467.00	1385.75
467.13	1379.75
467.26	1424.25
467.39	1318.25
467.52	1336.25
467.65	1363.25
467.78	1460.25
467.91	1383.25
468.04	1402.00
468.17	1364.00
468.30	1388.50
468.43	1351.25
468.56	1385.75
468.69	1415.00
468.82	1438.75
468.95	1362.00
469.08	1402.50
469.21	1420.25
469.34	1459.25
469.47	1540.75
469.60	1506.75
469.73	1433.75
469.86	1475.75
469.99	1487.25
470.11	1410.50
470.24	1435.75
470.37	1494.25
470.50	1456.25
470.63	1437.75
470.76	1467.25
470.89	1516.75
471.02	1574.00
471.15	1462.75
471.28	1479.00
471.41	1586.00
471.54	1528.25
471.67	1479.00
471.80	1442.50
471.93	1558.50
472.06	1524.50
472.19	1491.00
472.32	1470.00
472.45	1637.50
472.58	1598.00
472.71	1536.75
472.84	1516.50
472.97	1526.50
473.10	1493.00
473.23	1575.25
473.36	1500.50
473.49	1632.00
473.62	1604.00
473.74	1589.50
473.87	1610.50
474.00	1556.50
474.13	1561.25
474.26	1590.75
474.39	1625.75
474.52	1608.50
474.65	1585.50
474.78	1628.00
474.91	1570.75
475.04	1642.00
475.17	1764.25
475.30	1639.25
475.43	1660.50
475.56	1694.00
475.69	1658.75
475.82	1682.00
475.95	1625.75
476.08	1731.25
476.21	1680.00
476.34	1718.25
476.46	1704.75
476.59	1772.75
476.72	1687.25
476.85	1690.25
476.98	1669.00
477.11	1765.00
477.24	1725.75
477.37	1665.00
477.50	1692.50
477.63	1744.00
477.76	1717.00
477.89	1676.25
478.02	1704.00
478.15	1755.75
478.28	1753.00
478.41	1790.75
478.54	1730.75
478.66	1834.50
478.79	1769.00
478.92	1787.50
479.05	1789.75
479.18	1805.25
479.31	1784.00
479.44	1782.50
479.57	1783.75
479.70	1809.25
479.83	1848.00
479.96	1828.00
480.09	1860.50
480.22	1998.75
480.35	1979.50
480.48	1902.00
480.60	1885.50
480.73	1855.75
480.86	1911.25
480.99	1878.75
481.12	1895.50
481.25	1910.75
481.38	1978.50
481.51	1901.00
481.64	1904.75
481.77	1948.75
481.90	1921.50
482.03	1923.25
482.16	1930.50
482.29	2021.75
482.41	1949.25
482.54	1978.50
482.67	1927.00
482.80	1979.00
482.93	2043.25
483.06	1963.25
483.19	2047.75
483.32	2031.00
483.45	1994.75
483.58	2017.75
483.71	2025.50
483.84	2075.00
483.97	2048.75
484.09	2010.25
484.22	2016.00
484.35	2029.50
484.48	1998.00
484.61	2034.25
484.74	2047.75
484.87	2084.00
485.00	2039.75
485.13	2088.50
485.26	2051.00
485.39	2135.50
485.52	2090.75
485.64	2174.25
485.77	2131.50
485.90	2178.00
486.03	2077.00
486.16	2125.25
486.29	2100.25
486.42	2140.75
486.55	2185.75
486.68	2144.75
486.81	2170.75
486.94	2165.00
487.06	2162.75
487.19	2184.75
487.32	2188.75
487.45	2202.75
487.58	2179.00
487.71	2190.00
487.84	2158.50
487.97	2235.75
488.10	2275.00
488.23	2195.00
488.35	2176.50
488.48	2220.25
488.61	2200.50
488.74	2235.75
488.87	2219.75
489.00	2269.25
489.13	2342.50
489.26	2282.75
489.39	2306.00
489.52	2322.75
489.64	2319.50
489.77	2306.25
489.90	2307.25
490.03	2286.75
490.16	2289.25
490.29	2285.25
490.42	2294.25
490.55	2340.25
490.68	2292.25
490.81	2310.50
490.93	2282.00
491.06	2397.25
491.19	2375.25
491.32	2348.25
491.45	2382.00
491.58	2330.75
491.71	2373.25
491.84	2352.75
491.97	2351.50
492.09	2461.00
492.22	2418.00
492.35	2415.50
492.48	2436.25
492.61	2422.25
492.74	2407.25
492.87	2450.00
493.00	2421.00
493.12	2410.50
493.25	2466.00
493.38	2436.75
493.51	2407.75
493.64	2426.75
493.77	2446.75
493.90	2473.00
494.03	2482.00
494.16	2539.50
494.28	2559.25
494.41	2459.75
494.54	2512.75
494.67	2638.75
494.80	2581.00
494.93	2521.00
495.06	2545.00
495.19	2559.50
495.31	2543.50
495.44	2526.75
495.57	2510.50
495.70	2576.00
495.83	2568.50
495.96	2502.50
496.09	2568.00
496.22	2615.50
496.34	2671.00
496.47	2565.00
496.60	2592.00
496.73	2647.75
496.86	2648.50
496.99	2572.50
497.12	2598.00
497.24	2550.25
497.37	2653.25
497.50	2603.00
497.63	2611.75
497.76	2635.25
497.89	2715.75
498.02	2665.00
498.15	2564.00
498.27	2665.50
498.40	2731.75
498.53	2721.25
498.66	2681.50
498.79	2714.25
498.92	2626.75
499.05	2696.75
499.17	2696.50
499.30	2741.00
499.43	2802.75
499.56	2749.25
499.69	2673.75
499.82	2739.25
499.95	2716.75
500.07	2702.50
500.20	2721.25
500.33	2773.75
500.46	2890.50
500.59	2778.00
500.72	2775.25
500.85	2789.75
500.97	2816.25
501.10	2810.75
501.23	2732.75
501.36	2783.25
501.49	2859.25
501.62	2830.25
501.75	2805.00
501.87	2851.50
502.00	2770.75
502.13	2831.75
502.26	2822.75
502.39	2778.75
502.52	2810.25
502.64	2790.00
502.77	2806.00
502.90	2899.50
503.03	2858.25
503.16	2823.00
503.29	2830.75
503.42	2943.75
503.54	2864.75
503.67	2891.00
503.80	2882.75
503.93	2931.50
504.06	2863.25
504.19	2891.50
504.31	2971.75
504.44	2936.75
504.57	2952.00
504.70	2919.75
504.83	2897.00
504.96	2959.00
505.08	2936.25
505.21	2961.00
505.34	3062.00
505.47	3003.00
505.60	3000.75
505.73	3034.00
505.85	3034.50
505.98	3109.75
506.11	2957.00
506.24	2948.50
506.37	2973.00
506.50	3006.25
506.62	3053.50
506.75	2998.75
506.88	2977.50
507.01	3039.00
507.14	2987.25
507.27	3032.00
507.39	3007.50
507.52	3029.25
507.65	3022.25
507.78	3066.75
507.91	3015.50
508.04	3138.75
508.16	3117.75
508.29	3110.25
508.42	3075.00
508.55	3054.00
508.68	3065.25
508.81	3129.25
508.93	3078.50
509.06	3107.00
509.19	3140.25
509.32	3132.50
509.45	3114.50
509.57	3157.00
509.70	3111.00
509.83	3119.50
509.96	3087.50
510.09	3146.75
510.22	3141.00
510.34	3168.25
510.47	3161.50
510.60	3265.50
510.73	3185.25
510.86	3191.50
510.98	3178.25
511.11	3178.00
511.24	3262.75
511.37	3229.75
511.50	3196.25
511.63	3243.25
511.75	3237.00
511.88	3221.50
512.01	3258.75
512.14	3248.00
512.27	3253.25
512.39	3235.25
512.52	3237.00
512.65	3278.50
512.78	3233.25
512.91	3262.75
513.03	3281.50
513.16	3339.00
513.29	3291.75
513.42	3279.75
513.55	3228.00
513.67	3301.50
513.80	3242.00
513.93	3300.50
514.06	3299.75
514.19	3340.00
514.31	3326.50
514.44	3381.00
514.57	3343.25
514.70	3356.75
514.83	3399.25
514.95	3323.00
515.08	3349.00
515.21	3389.75
515.34	3360.00
515.47	3383.00
515.59	3349.50
515.72	3427.00
515.85	3418.25
515.98	3450.75
516.11	3395.25
516.23	3456.50
516.36	3492.00
516.49	3455.00
516.62	3424.00
516.75	3480.25
516.87	3530.75
517.00	3402.75
517.13	3456.75
517.26	3508.25
517.39	3481.25
517.51	3399.25
517.64	3468.00
517.77	3572.50
517.90	3453.75
518.02	3474.25
518.15	3458.25
518.28	3417.75
518.41	3504.25
518.54	3481.50
518.66	3512.00
518.79	3479.75
518.92	3495.75
519.05	3508.25
519.18	3486.50
519.30	3562.75
519.43	3488.75
519.56	3519.75
519.69	3547.00
519.81	3576.00
519.94	3538.00
520.07	3492.75
520.20	3538.00
520.33	3589.25
520.45	3616.75
520.58	3562.50
520.71	3611.50
520.84	3636.25
520.96	3616.75
521.09	3605.75
521.22	3579.00
521.35	3663.25
521.48	3668.75
521.60	3605.50
521.73	3652.25
521.86	3684.00
521.99	3722.50
522.11	3647.25
522.24	3645.25
522.37	3675.75
522.50	3680.25
522.62	3700.25
522.75	3584.25
522.88	3674.25
523.01	3653.75
523.14	3671.75
523.26	3681.25
523.39	3754.50
523.52	3657.00
523.65	3812.00
523.77	3707.75
523.90	3697.00
524.03	3700.25
524.16	3692.00
524.28	3684.25
524.41	3714.75
524.54	3727.00
524.67	3692.25
524.79	3712.00
524.92	3770.00
525.05	3802.75
525.18	3718.50
525.31	3803.25
525.43	3710.00
525.56	3859.00
525.69	3748.00
525.82	3692.75
525.94	3816.50
526.07	3822.75
526.20	3795.75
526.33	3805.75
526.45	3914.50
526.58	3893.00
526.71	3803.00
526.84	3788.50
526.96	3815.00
527.09	3793.75
527.22	3792.25
527.35	3798.00
527.47	3770.25
527.60	3899.25
527.73	3805.75
527.86	3853.25
527.98	3866.00
528.11	3869.00
528.24	3819.25
528.37	3835.00
528.49	3804.50
528.62	3873.25
528.75	3893.25
528.88	3848.25
529.00	3918.25
529.13	3940.50
529.26	3877.00
529.39	3923.25
529.51	4030.50
529.64	3991.00
529.77	3898.75
529.90	3877.75
530.02	3905.00
530.15	3870.75
530.28	3847.25
530.40	3876.75
530.53	3925.50
530.66	3970.75
530.79	3946.25
530.91	3951.75
531.04	3922.75
531.17	3927.75
531.30	3945.00
531.42	3951.50
531.55	3978.50
531.68	4044.25
531.81	3965.25
531.93	3967.25
532.06	3987.00
532.19	3949.50
532.31	3989.50
532.44	3984.25
532.57	4021.25
532.70	3981.25
532.82	3997.50
532.95	4030.75
533.08	4097.75
533.21	4075.50
533.33	4000.75
533.46	3991.25
533.59	4041.50
533.71	4141.25
533.84	4058.00
533.97	4029.00
534.10	4020.00
534.22	4017.25
534.35	4072.75
534.48	4062.75
534.61	4101.75
534.73	3996.50
534.86	4045.50
534.99	4098.75
535.11	4133.00
535.24	4097.25
535.37	4065.75
535.50	4065.00
535.62	4066.75
535.75	4170.50
535.88	4096.00
536.00	4072.50
536.13	4116.00
536.26	4146.00
536.39	4101.75
536.51	4081.00
536.64	4162.00
536.77	4137.00
536.89	4139.75
537.02	4157.50
537.15	4193.25
537.28	4156.75
537.40	4185.00
537.53	4161.50
537.66	4205.00
537.78	4188.00
537.91	4160.00
538.04	4166.25
538.17	4258.25
538.29	4234.75
538.42	4271.00
538.55	4281.00
538.67	4247.50
538.80	4201.75
538.93	4224.25
539.05	4222.75
539.18	4297.50
539.31	4271.00
539.44	4271.50
539.56	4183.00
539.69	4237.25
539.82	4208.25
539.94	4244.50
540.07	4235.25
540.20	4335.50
540.32	4224.00
540.45	4274.25
540.58	4254.50
540.71	4315.25
540.83	4248.50
540.96	4275.25
541.09	4289.50
541.21	4383.25
541.34	4372.00
541.47	4265.25
541.59	4322.25
541.72	4446.25
541.85	4489.50
541.98	4383.50
542.10	4324.00
542.23	4366.75
542.36	4454.50
542.48	4334.25
542.61	4322.50
542.74	4303.50
542.86	4334.00
542.99	4338.00
543.12	4345.50
543.24	4393.75
543.37	4313.25
543.50	4373.75
543.62	4343.25
543.75	4395.50
543.88	4367.50
544.01	4390.00
544.13	4414.50
544.26	4443.50
544.39	4390.50
544.51	4415.25
544.64	4387.75
544.77	4438.00
544.89	4407.50
545.02	4420.25
545.15	4412.25
545.27	4528.25
545.40	4523.25
545.53	4453.25
545.65	4456.25
545.78	4389.00
545.91	4408.50
546.03	4439.25
546.16	4461.75
546.29	4452.25
546.41	4431.25
546.54	4465.75
546.67	4430.25
546.79	4537.25
546.92	4571.00
547.05	4459.25
547.17	4512.50
547.30	4467.75
547.43	4543.50
547.56	4468.25
547.68	4485.00
547.81	4475.25
547.94	4500.75
548.06	4504.50
548.19	4492.25
548.32	4571.75
548.44	4548.25
548.57	4532.25
548.70	4595.75
548.82	4599.00
548.95	4567.25
549.08	4544.75
549.20	4561.75
549.33	4622.25
549.45	4560.75
549.58	4558.00
549.71	4478.75
549.83	4612.75
549.96	4511.50
550.09	4586.25
550.21	4564.00
550.34	4608.25
550.47	4558.50
550.59	4578.00
550.72	4529.25
550.85	4606.25
550.97	4648.75
551.10	4597.25
551.23	4603.50
551.35	4697.75
551.48	4671.50
551.61	4638.75
551.73	4629.00
551.86	4726.25
551.99	4704.00
552.11	4653.25
552.24	4667.75
552.37	4671.50
552.49	4645.50
552.62	4667.25
552.75	4713.25
552.87	4686.00
553.00	4654.25
553.12	4681.50
553.25	4693.50
553.38	4724.50
553.50	4767.25
553.63	4699.75
553.76	4661.50
553.88	4735.00
554.01	4733.25
554.14	4713.25
554.26	4776.25
554.39	4826.25
554.52	4731.50
554.64	4730.25
554.77	4749.50
554.89	4807.25
555.02	4825.25
555.15	4771.50
555.27	4800.25
555.40	4773.00
555.53	4864.75
555.65	4766.25
555.78	4762.25
555.91	4822.00
556.03	4859.00
556.16	4772.00
556.29	4819.00
556.41	4882.50
556.54	4897.50
556.66	4824.50
556.79	4812.25
556.92	4868.75
557.04	4884.50
557.17	4822.00
557.30	4832.25
557.42	4832.50
557.55	4822.25
557.67	4888.50
557.80	4856.50
557.93	4870.75
558.05	4897.00
558.18	4858.50
558.31	4901.50
558.43	4962.25
558.56	4935.25
558.68	4894.50
558.81	4831.75
558.94	4927.00
559.06	5036.75
559.19	4913.50
559.32	4933.50
559.44	4917.00
559.57	4919.50
559.69	4906.00
559.82	4910.00
559.95	4934.50
560.07	4941.50
560.20	4900.25
560.33	4959.50
560.45	4992.75
560.58	4944.50
560.70	4962.50
560.83	4910.25
560.96	4979.25
561.08	4976.50
561.21	5016.75
561.33	4969.75
561.46	4931.25
561.59	5050.25
561.71	4972.75
561.84	5023.50
561.97	5029.00
562.09	5092.00
562.22	5039.25
562.34	5025.00
562.47	5075.75
562.60	5065.25
562.72	5041.00
562.85	5052.00
562.97	5057.75
563.10	5051.00
563.23	5035.00
563.35	5041.50
563.48	5080.25
563.60	5105.75
563.73	5101.00
563.86	5059.75
563.98	5053.75
564.11	5068.00
564.23	5086.25
564.36	5161.00
564.49	5105.25
564.61	5177.00
564.74	5125.75
564.86	5104.00
564.99	5208.75
565.12	5219.25
565.24	5225.75
565.37	5192.75
565.49	5229.50
565.62	5220.75
565.75	5214.00
565.87	5141.00
566.00	5321.50
566.12	5267.50
566.25	5168.00
566.38	5205.00
566.50	5192.50
566.63	5216.00
566.75	5197.25
566.88	5142.75
567.01	5143.75
567.13	5177.75
567.26	5191.50
567.38	5188.00
567.51	5253.75
567.64	5152.25
567.76	5237.00
567.89	5208.00
568.01	5203.75
568.14	5173.50
568.26	5215.25
568.39	5197.25
568.52	5221.50
568.64	5274.75
568.77	5211.50
568.89	5231.75
569.02	5224.00
569.15	5235.00
569.27	5258.00
569.40	5262.00
569.52	5273.75
569.65	5224.75
569.77	5234.75
569.90	5260.75
570.03	5208.00
570.15	5309.75
570.28	5268.50
570.40	5264.25
570.53	5256.75
570.66	5331.50
570.78	5321.25
570.91	5247.25
571.03	5229.00
571.16	5290.75
571.28	5235.50
571.41	5235.75
571.54	5222.00
571.66	5221.75
571.79	5282.75
571.91	5219.75
572.04	5258.25
572.16	5303.50
572.29	5322.50
572.42	5280.25
572.54	5288.50
572.67	5259.50
572.79	5316.25
572.92	5260.75
573.04	5328.25
573.17	5377.75
573.29	5295.25
573.42	5300.25
573.55	5361.75
573.67	5336.50
573.80	5324.00
573.92	5280.75
574.05	5313.25
574.17	5385.00
574.30	5335.00
574.43	5311.00
574.55	5285.75
574.68	5363.25
574.80	5327.25
574.93	5302.75
575.05	5285.25
575.18	5298.75
575.30	5310.00
575.43	5349.75
575.56	5387.00
575.68	5343.25
575.81	5310.75
575.93	5287.75
576.06	5357.00
576.18	5366.25
576.31	5327.50
576.43	5293.50
576.56	5459.25
576.69	5378.25
576.81	5356.75
576.94	5347.50
577.06	5355.50
577.19	5388.00
577.31	5349.25
577.44	5385.25
577.56	5422.00
577.69	5366.00
577.82	5392.75
577.94	5351.75
578.07	5302.50
578.19	5409.75
578.32	5395.00
578.44	5340.75
578.57	5338.00
578.69	5407.00
578.82	5364.75
578.94	5417.75
579.07	5428.25
579.19	5431.25
579.32	5410.25
579.45	5392.50
579.57	5367.75
579.70	5362.25
579.82	5401.75
579.95	5379.25
580.07	5465.50
580.20	5404.75
580.32	5390.50
580.45	5398.50
580.57	5431.50
580.70	5366.50
580.82	5425.25
580.95	5432.00
581.08	5358.75
581.20	5466.50
581.33	5391.75
581.45	5395.25
581.58	5443.75
581.70	5429.75
581.83	5314.00
581.95	5415.50
582.08	5432.50
582.20	5381.50
582.33	5415.75
582.45	5377.25
582.58	5406.75
582.70	5427.25
582.83	5420.50
582.95	5402.75
583.08	5443.25
583.21	5438.25
583.33	5452.75
583.46	5407.50
583.58	5364.00
583.71	5421.50
583.83	5435.50
583.96	5442.25
584.08	5486.25
584.21	5468.50
584.33	5472.75
584.46	5415.00
584.58	5383.50
584.71	5473.00
584.83	5463.75
584.96	5433.75
585.08	5428.50
585.21	5514.00
585.33	5492.00
585.46	5441.50
585.58	5465.25
585.71	5399.75
585.83	5414.75
585.96	5456.50
586.08	5491.75
586.21	5506.25
586.33	5487.25
586.46	5399.00
586.59	5495.50
586.71	5406.25
586.84	5485.50
586.96	5430.25
587.09	5389.00
587.21	5401.00
587.34	5457.25
587.46	5451.50
587.59	5414.00
587.71	5425.75
587.84	5431.00
587.96	5412.00
588.09	5419.75
588.21	5496.50
588.34	5445.00
588.46	5465.75
588.59	5441.00
588.71	5466.00
588.84	5473.25
588.96	5451.75
589.09	5567.50
589.21	5496.75
589.34	5415.50
589.46	5469.00
589.59	5510.00
589.71	5517.25
589.84	5454.00
589.96	5442.75
590.09	5429.75
590.21	5499.75
590.34	5473.25
590.46	5478.00
590.59	5458.50
590.71	5460.50
590.84	5522.75
590.96	5448.25
591.09	5513.75
591.21	5474.25
591.34	5496.25
591.46	5476.25
591.59	5559.25
591.71	5555.25
591.83	5475.50
591.96	5438.75
592.08	5502.50
592.21	5545.25
592.33	5520.25
592.46	5479.75
592.58	5524.50
592.71	5542.75
592.83	5571.50
592.96	5525.00
593.08	5556.75
593.21	5462.00
593.33	5459.50
593.46	5498.00
593.58	5477.75
593.71	5549.00
593.83	5569.00
593.96	5471.75
594.08	5604.00
594.21	5497.25
594.33	5447.25
594.46	5471.00
594.58	5441.00
594.71	5428.50
594.83	5531.50
594.96	5490.50
595.08	5685.25
595.20	5560.25
595.33	5558.00
595.45	5506.25
595.58	5622.75
595.70	5552.75
595.83	5488.25
595.95	5531.50
596.08	5515.00
596.20	5463.50
596.33	5476.50
596.45	5485.75
596.58	5498.50
596.70	5481.50
596.83	5523.75
596.95	5504.50
597.08	5540.00
597.20	5504.00
597.32	5499.25
597.45	5537.75
597.57	5536.00
597.70	5517.00
597.82	5518.00
597.95	5556.00
598.07	5534.25
598.20	5578.50
598.32	5529.75
598.45	5513.50
598.57	5575.50
598.70	5584.50
598.82	5553.50
598.94	5514.75
599.07	5585.00
599.19	5541.75
599.32	5507.50
599.44	5440.00
599.57	5572.25
599.69	5529.50
599.82	5549.50
599.94	5498.00
600.07	5587.75
600.19	5561.25
600.31	5561.00
600.44	5576.50
600.56	5636.75
600.69	5642.25
600.81	5556.75
600.94	5517.50
601.06	5542.50
601.19	5555.00
601.31	5586.75
601.44	5479.00
601.56	5612.25
601.68	5572.25
601.81	5564.00
601.93	5567.00
602.06	5603.25
602.18	5538.75
602.31	5532.75
602.43	5616.50
602.56	5617.25
602.68	5584.50
602.80	5591.75
602.93	5581.75
603.05	5528.75
603.18	5559.50
603.30	5530.50
603.43	5517.25
603.55	5559.00
603.68	5579.50
603.80	5560.00
603.92	5539.75
604.05	5571.25
604.17	5535.50
604.30	5503.75
604.42	5535.50
604.55	5578.00
604.67	5615.75
604.79	5540.50
604.92	5560.75
605.04	5557.00
605.17	5532.50
605.29	5546.75
605.42	5570.75
605.54	5636.75
605.66	5564.25
605.79	5607.00
605.91	5568.75
606.04	5591.50
606.16	5566.25
606.29	5588.75
606.41	5529.75
606.53	5553.75
606.66	5512.25
606.78	5563.75
606.91	5531.25
607.03	5553.00
607.16	5556.50
607.28	5536.75
607.40	5558.75
607.53	5589.00
607.65	5537.50
607.78	5563.50
607.90	5589.75
608.03	5705.25
608.15	5593.25
608.27	5618.25
608.40	5572.25
608.52	5602.75
608.65	5593.50
608.77	5596.00
608.89	5542.75
609.02	5669.75
609.14	5656.00
609.27	5610.00
609.39	5619.25
609.52	5555.00
609.64	5510.00
609.76	5553.00
609.89	5568.75
610.01	5672.75
610.14	5620.00
610.26	5556.75
610.38	5550.00
610.51	5635.75
610.63	5572.75
610.76	5569.25
610.88	5598.25
611.01	5631.00
611.13	5684.00
611.25	5654.75
611.38	5573.25
611.50	5597.50
611.63	5621.00
611.75	5607.50
611.87	5621.75
612.00	5569.50
612.12	5654.25
612.25	5586.00
612.37	5577.75
612.49	5679.50
612.62	5635.00
612.74	5667.25
612.87	5611.50
612.99	5606.25
613.11	5562.50
613.24	5575.00
613.36	5607.25
613.49	5606.75
613.61	5618.25
613.73	5548.00
613.86	5613.25
613.98	5575.50
614.11	5606.75
614.23	5637.00
614.35	5619.75
614.48	5662.25
614.60	5628.25
614.72	5580.75
614.85	5603.25
614.97	5616.50
615.10	5625.25
615.22	5569.25
615.34	5661.75
615.47	5633.25
615.59	5569.00
615.72	5584.00
615.84	5580.50
615.96	5579.25
616.09	5711.75
616.21	5603.75
616.34	5549.25
616.46	5597.75
616.58	5620.25
616.71	5647.75
616.83	5638.75
616.95	5660.75
617.08	5632.25
617.20	5606.25
617.33	5535.00
617.45	5591.50
617.57	5636.50
617.70	5614.25
617.82	5586.75
617.95	5610.00
618.07	5686.50
618.19	5626.75
618.32	5631.50
618.44	5592.50
618.56	5556.00
618.69	5533.50
618.81	5535.75
618.94	5628.50
619.06	5577.75
619.18	5610.25
619.31	5551.00
619.43	5585.75
619.55	5598.50
619.68	5606.50
619.80	5551.75
619.92	5622.00
620.05	5741.50
620.17	5662.00
620.30	5561.25
620.42	5585.00
620.54	5637.25
620.67	5577.25
620.79	5600.25
620.91	5603.75
621.04	5643.00
621.16	5580.50
621.29	5572.00
621.41	5541.75
621.53	5590.00
621.66	5596.25
621.78	5574.00
621.90	5637.25
622.03	5667.25
622.15	5573.75
622.27	5596.25
622.40	5583.75
622.52	5542.50
622.64	5594.50
622.77	5533.25
622.89	5604.00
623.02	5611.75
623.14	5610.00
623.26	5628.25
623.39	5640.00
623.51	5655.50
623.63	5565.75
623.76	5535.50
623.88	5655.25
624.00	5586.75
624.13	5530.75
624.25	5580.75
624.37	5521.50
624.50	5610.00
624.62	5598.75
624.75	5541.00
624.87	5519.50
624.99	5606.00
625.12	5570.00
625.24	5556.75
625.36	5667.50
625.49	5603.25
625.61	5588.00
625.73	5565.25
625.86	5596.50
625.98	5567.50
626.10	5511.75
626.23	5495.25
626.35	5586.50
626.47	5534.50
626.60	5522.75
626.72	5503.50
626.84	5574.25
626.97	5613.25
627.09	5547.50
627.21	5542.50
627.34	5660.50
627.46	5655.25
627.58	5545.00
627.71	5561.00
627.83	5606.50
627.95	5497.00
628.08	5557.25
628.20	5543.00
628.32	5486.50
628.45	5450.50
628.57	5470.00
628.69	5490.75
628.82	5586.75
628.94	5577.25
629.06	5522.75
629.19	5530.25
629.31	5566.50
629.43	5516.00
629.56	5573.25
629.68	5531.25
629.80	5583.25
629.93	5498.50
630.05	5507.75
630.17	5489.25
630.30	5532.00
630.42	5492.25
630.54	5547.00
630.67	5549.25
630.79	5497.25
630.91	5649.50
631.04	5525.75
631.16	5567.00
631.28	5549.00
631.41	5503.25
631.53	5465.25
631.65	5523.75
631.78	5532.00
631.90	5505.25
632.02	5518.00
632.14	5405.75
632.27	5547.00
632.39	5492.25
632.51	5501.50
632.64	5541.75
632.76	5521.00
632.88	5475.00
633.01	5506.25
633.13	5453.00
633.25	5523.75
633.38	5623.75
633.50	5459.75
633.62	5461.75
633.75	5456.00
633.87	5431.75
633.99	5498.75
634.11	5450.50
634.24	5476.50
634.36	5490.00
634.48	5479.75
634.61	5450.25
634.73	5520.00
634.85	5419.75
634.98	5425.25
635.10	5444.25
635.22	5467.75
635.35	5610.00
635.47	5484.75
635.59	5451.00
635.71	5474.50
635.84	5517.50
635.96	5477.75
636.08	5524.25
636.21	5477.00
636.33	5487.25
636.45	5458.00
636.58	5443.00
636.70	5408.75
636.82	5489.75
636.94	5455.50
637.07	5406.50
637.19	5520.50
637.31	5473.75
637.44	5512.75
637.56	5429.50
637.68	5490.00
637.81	5474.50
637.93	5444.50
638.05	5422.50
638.17	5537.00
638.30	5574.25
638.42	5426.50
638.54	5423.75
638.67	5431.00
638.79	5470.75
638.91	5421.50
639.03	5419.50
639.16	5414.00
639.28	5429.00
639.40	5457.25
639.53	5429.00
639.65	5476.25
639.77	5426.00
639.89	5438.00
640.02	5438.00
640.14	5434.00
640.26	5395.25
640.39	5449.00
640.51	5409.50
640.63	5470.75
640.75	5491.25
640.88	5425.50
641.00	5397.25
641.12	5410.50
641.24	5512.50
641.37	5416.75
641.49	5365.50
641.61	5508.00
641.74	5383.50
641.86	5446.75
641.98	5387.50
642.10	5440.50
642.23	5397.25
642.35	5390.25
642.47	5405.50
642.60	5444.25
642.72	5453.25
642.84	5339.75
642.96	5347.00
643.09	5358.50
643.21	5370.75
643.33	5366.25
643.45	5363.75
643.58	5444.25
643.70	5485.75
643.82	5407.00
643.94	5382.75
644.07	5414.75
644.19	5406.00
644.31	5413.50
644.44	5417.00
644.56	5366.50
644.68	5391.00
644.80	5340.50
644.93	5377.75
645.05	5385.25
645.17	5410.50
645.29	5381.25
645.42	5368.25
645.54	5379.50
645.66	5440.75
645.78	5398.00
645.91	5353.00
646.03	5383.75
646.15	5463.00
646.27	5380.75
646.40	5375.75
646.52	5432.00
646.64	5434.75
646.76	5357.00
646.89	5342.75
647.01	5422.00
647.13	5384.00
647.25	5413.00
647.38	5358.50
647.50	5376.50
647.62	5438.75
647.74	5319.50
647.87	5327.25
647.99	5399.25
648.11	5436.75
648.23	5365.00
648.36	5324.75
648.48	5419.00
648.60	5377.50
648.72	5335.50
648.85	5285.50
648.97	5400.00
649.09	5373.75
649.21	5340.00
649.34	5381.00
649.46	5399.25
649.58	5399.00
649.70	5357.25
649.83	5331.25
649.95	5385.25
650.07	5384.50
650.19	5376.75
650.32	5353.25
650.44	5397.50
650.56	5364.00
650.68	5335.25
650.81	5332.00
650.93	5330.25
651.05	5357.25
651.17	5311.25
651.29	5343.00
651.42	5309.50
651.54	5363.00
651.66	5301.25
651.78	5268.75
651.91	5349.00
652.03	5459.25
652.15	5346.25
652.27	5285.75
652.40	5352.00
652.52	5318.25
652.64	5335.00
652.76	5296.00
652.88	5449.50
653.01	5326.25
653.13	5317.00
653.25	5246.00
653.37	5363.00
653.50	5349.50
653.62	5329.00
653.74	5248.75
653.86	5357.00
653.98	5331.00
654.11	5281.50
654.23	5299.50
654.35	5289.25
654.47	5428.25
654.60	5279.75
654.72	5278.75
654.84	5248.25
654.96	5347.75
655.08	5273.50
655.21	5302.50
655.33	5301.25
655.45	5345.25
655.57	5307.00
655.70	5317.50
655.82	5337.00
655.94	5371.50
656.06	5320.25
656.18	5252.75
656.31	5343.75
656.43	5327.00
656.55	5232.00
656.67	5261.75
656.79	5285.00
656.92	5335.50
657.04	5266.25
657.16	5222.25
657.28	5395.25
657.40	5289.50
657.53	5333.00
657.65	5259.00
657.77	5326.75
657.89	5333.00
658.01	5243.00
658.14	5226.75
658.26	5271.00
658.38	5224.75
658.50	5210.00
658.62	5238.00
658.75	5385.00
658.87	5269.75
658.99	5263.00
659.11	5187.25
659.23	5301.00
659.36	5355.25
659.48	5274.25
659.60	5267.50
659.72	5223.75
659.84	5205.25
659.97	5255.75
660.09	5248.25
660.21	5342.75
660.33	5296.75
660.45	5183.75
660.58	5134.00
660.70	5197.25
660.82	5203.00
660.94	5133.75
661.06	5210.00
661.19	5261.50
661.31	5256.00
661.43	5201.75
661.55	5193.00
661.67	5225.50
661.80	5292.75
661.92	5177.75
662.04	5199.50
662.16	5204.00
662.28	5235.75
662.40	5186.75
662.53	5178.75
662.65	5211.50
662.77	5159.75
662.89	5190.00
663.01	5158.50
663.14	5170.00
663.26	5203.00
663.38	5164.25
663.50	5119.50
663.62	5136.75
663.74	5132.50
663.87	5166.25
663.99	5187.00
664.11	5203.25
664.23	5279.25
664.35	5118.00
664.48	5134.50
664.60	5134.00
664.72	5125.25
664.84	5106.75
664.96	5096.00
665.08	5211.75
665.21	5159.50
665.33	5145.00
665.45	5052.00
665.57	5120.00
665.69	5207.25
665.81	5121.25
665.94	5069.25
666.06	5079.25
666.18	5118.25
666.30	5095.50
666.42	5074.75
666.54	5116.00
666.67	5129.00
666.79	5058.00
666.91	5142.50
667.03	5112.50
667.15	5074.50
667.27	5116.75
667.40	5025.50
667.52	5061.25
667.64	5094.00
667.76	5071.00
667.88	5022.25
668.00	5118.50
668.13	5099.00
668.25	5040.00
668.37	5023.00
668.49	5060.75
668.61	5109.75
668.73	5043.50
668.85	5050.25
668.98	5107.75
669.10	5067.25
669.22	5019.75
669.34	5013.25
669.46	5074.00
669.58	4994.50
669.71	5065.25
669.83	5033.50
669.95	5011.25
670.07	5041.75
670.19	4991.25
670.31	5044.50
670.43	4998.50
670.56	5070.00
670.68	5087.00
670.80	5056.50
670.92	5031.75
671.04	5103.25
671.16	5027.00
671.28	5004.00
671.41	5013.50
671.53	5059.75
671.65	5012.50
671.77	5000.50
671.89	5170.00
672.01	5121.75
672.13	5041.50
672.26	4980.00
672.38	5033.25
672.50	4981.00
672.62	5001.50
672.74	5012.25
672.86	4995.25
672.98	5029.25
673.11	4985.50
673.23	5005.50
673.35	5063.50
673.47	5000.00
673.59	4971.75
673.71	4948.75
673.83	5009.50
673.96	5092.00
674.08	4969.75
674.20	4922.00
674.32	4990.50
674.44	5004.75
674.56	5006.00
674.68	4963.50
674.80	5033.75
674.93	4988.25
675.05	4980.25
675.17	4967.25
675.29	5016.75
675.41	5013.50
675.53	4969.75
675.65	4959.00
675.77	4989.25
675.90	5008.75
676.02	4932.00
676.14	4924.75
676.26	5035.00
676.38	5064.25
676.50	4983.50
676.62	4978.50
676.74	4915.25
676.87	4900.50
676.99	4981.25
677.11	4973.25
677.23	4983.00
677.35	4965.50
677.47	4904.25
677.59	4919.25
677.71	4960.50
677.83	5003.75
677.96	4940.25
678.08	4947.00
678.20	4934.00
678.32	4893.50
678.44	4931.25
678.56	4918.75
678.68	5060.00
678.80	4984.00
678.93	4901.25
679.05	4934.00
679.17	4956.75
679.29	5011.75
679.41	4939.50
679.53	4889.75
679.65	4918.00
679.77	4938.75
679.89	4898.50
680.01	4929.00
680.14	4950.75
680.26	4858.00
680.38	4877.25
680.50	4942.50
680.62	4991.25
680.74	4938.25
680.86	4925.50
680.98	4894.25
681.10	4944.25
681.22	5046.75
681.35	4908.75
681.47	4886.50
681.59	4875.00
681.71	5022.50
681.83	4949.50
681.95	4889.00
682.07	4950.50
682.19	4920.50
682.31	4892.50
682.43	4876.00
682.56	4945.75
682.68	4855.75
682.80	4868.75
682.92	4900.50
683.04	4921.75
683.16	4918.50
683.28	4894.25
683.40	4914.00
683.52	4909.50
683.64	4937.25
683.76	4868.75
683.89	4861.25
684.01	4909.25
684.13	4973.50
684.25	4919.50
684.37	4908.50
684.49	4924.75
684.61	4901.25
684.73	4928.25
684.85	4899.75
684.97	4867.00
685.09	4974.50
685.21	4868.75
685.34	4884.50
685.46	5036.00
685.58	4919.75
685.70	4899.25
685.82	4913.25
685.94	4832.75
686.06	4824.75
686.18	4827.25
686.30	4878.75
686.42	4869.75
686.54	4922.25
686.66	4840.50
686.79	4972.50
686.91	4933.00
687.03	5005.25
687.15	4907.50
687.27	4881.00
687.39	4878.50
687.51	4948.00
687.63	4904.75
687.75	4921.75
687.87	4931.25
687.99	4997.75
688.11	4863.75
688.23	4902.75
688.35	4945.50
688.48	4911.00
688.60	4858.50
688.72	4891.25
688.84	4919.25
688.96	4919.75
689.08	4899.25
689.20	4890.25
689.32	5010.00
689.44	4903.00
689.56	4854.75
689.68	4858.75
689.80	4895.25
689.92	4861.25
690.04	4856.00
690.16	4948.25
690.28	4933.25
690.41	4930.00
690.53	4865.25
690.65	4924.00
690.77	4953.25
690.89	4964.75
691.01	4871.50
691.13	4865.25
691.25	4877.25
691.37	4902.50
691.49	4877.75
691.61	4836.00
691.73	4968.25
691.85	4917.25
691.97	4885.75
692.09	4866.75
692.21	4962.25
692.33	4988.75
692.45	4902.00
692.57	4877.50
692.70	4898.75
692.82	4919.75
692.94	4847.75
693.06	4854.25
693.18	4895.50
693.30	4842.75
693.42	4844.75
693.54	4896.25
693.66	4919.25
693.78	4932.50
693.90	4892.00
694.02	4908.00
694.14	4933.50
694.26	4859.75
694.38	4903.25
694.50	4912.75
694.62	4934.00
694.74	4875.25
694.86	4878.25
694.98	4915.25
695.10	4918.75
695.22	4937.50
695.34	4876.25
695.46	4910.25
695.58	4896.25
695.71	4888.50
695.83	4880.00
695.95	4896.00
696.07	4971.25
696.19	4868.75
696.31	4893.50
696.43	4827.75
696.55	4989.50
696.67	4928.50
696.79	4891.00
696.91	4893.00
697.03	4871.25
697.15	5000.75
697.27	4919.75
697.39	4894.75
697.51	4967.75
697.63	4883.75
697.75	4892.25
697.87	4909.75
697.99	4865.00
698.11	4825.75
698.23	4875.00
698.35	4873.75
698.47	4925.00
698.59	4953.75
698.71	4899.50
698.83	4975.00
698.95	4877.50
699.07	4939.00
699.19	4896.50
699.31	4904.25
699.43	4895.50
699.55	4964.25
699.67	4879.50
699.79	4900.75
699.91	4895.25
700.03	4909.00
700.15	4917.25
700.27	4896.75
700.39	4914.00
700.51	4895.25
700.63	4922.75
700.75	4932.00
700.87	4950.00
700.99	4921.75
701.11	4965.75
701.24	4913.50
701.36	4977.50
701.48	4991.00
701.60	4976.75
701.72	4899.00
701.84	4999.75
701.96	4946.25
702.08	4921.25
702.20	5005.50
702.32	4978.25
702.44	4972.25
702.56	4909.25
702.68	4953.50
702.80	4926.00
702.92	5027.75
703.04	4990.75
703.16	4934.25
703.28	4964.25
703.40	4932.75
703.52	4987.25
703.64	4978.75
703.76	4966.50
703.88	4926.75
704.00	4919.50
704.12	4961.00
704.24	5007.50
704.36	4984.25
704.48	4964.50
704.60	4902.75
704.72	4971.25
704.84	4935.25
704.96	4967.75
705.07	4966.50
705.19	4922.50
705.31	4934.00
705.43	4943.25
705.55	4903.75
705.67	4965.75
705.79	4938.50
705.91	4869.25
706.03	4916.00
706.15	4933.75
706.27	4952.00
706.39	4908.00
706.51	4903.50
706.63	4922.75
706.75	4977.50
706.87	4944.00
706.99	5016.25
707.11	4951.75
707.23	4941.25
707.35	4988.25
707.47	4932.75
707.59	4986.25
707.71	4994.75
707.83	4947.75
707.95	5010.00
708.07	4967.50
708.19	5066.75
708.31	4983.75
708.43	4913.75
708.55	4954.50
708.67	5027.50
708.79	4958.75
708.91	4995.25
709.03	4985.00
709.15	5041.75
709.27	4939.75
709.39	4962.00
709.51	4926.50
709.63	4952.00
709.75	4986.00
709.87	4893.00
709.99	5004.50
710.11	4948.25
710.23	4961.75
710.35	4931.50
710.47	5071.50
710.58	5022.75
710.70	5021.75
710.82	5018.75
710.94	4992.25
711.06	4988.00
711.18	4962.25
711.30	4960.75
711.42	5009.00
711.54	4957.25
711.66	4975.75
711.78	4926.25
711.90	5024.00
712.02	5046.50
712.14	4953.50
712.26	4936.25
712.38	5047.75
712.50	5042.00
712.62	4977.75
712.74	4925.25
712.86	4950.50
712.98	4984.75
713.10	4920.75
713.22	4938.75
713.34	4958.25
713.45	4955.00
713.57	4973.50
713.69	4933.50
713.81	4963.25
713.93	4975.00
714.05	4962.75
714.17	4893.00
714.29	5053.00
714.41	5048.00
714.53	4976.25
714.65	4991.00
714.77	4983.50
714.89	4927.75
715.01	5020.50
715.13	4919.00
715.25	4967.00
715.37	4918.75
715.49	4893.00
715.61	4987.50
715.72	5002.00
715.84	5028.75
715.96	4939.75
716.08	4915.00
716.20	5018.25
716.32	5014.00
716.44	4936.00
716.56	4940.25
716.68	4966.25
716.80	5043.25
716.92	5006.50
717.04	4976.50
717.16	4990.75
717.28	4935.00
717.40	4951.25
717.52	4945.50
717.63	4929.00
717.75	4953.50
717.87	4967.25
717.99	4923.25
718.11	4921.75
718.23	5050.00
718.35	4988.25
718.47	4941.50
718.59	4907.25
718.71	4899.75
718.83	4894.00
718.95	4926.75
719.07	4887.25
719.19	4924.00
719.30	4900.75
719.42	4914.25
719.54	4932.50
719.66	4924.50
719.78	4909.50
719.90	4858.50
720.02	4926.25
720.14	4926.75
720.26	4955.25
720.38	4940.50
720.50	4862.00
720.62	4835.00
720.74	4897.50
720.85	4902.25
720.97	4985.25
721.09	5036.75
721.21	4896.25
721.33	4967.00
721.45	4933.50
721.57	4924.25
721.69	4860.00
721.81	4828.25
721.93	5004.25
722.05	4941.25
722.16	4860.50
722.28	4859.75
722.40	4875.25
722.52	4908.75
722.64	4941.50
722.76	4812.50
722.88	4914.25
723.00	4944.50
723.12	4896.75
723.24	4920.50
723.36	4829.75
723.47	4942.50
723.59	4895.75
723.71	4861.75
723.83	4925.50
723.95	4868.50
724.07	4894.25
724.19	4925.75
724.31	4966.25
724.43	4855.00
724.55	4832.00
724.66	4853.75
724.78	5039.75
724.90	4845.25
725.02	4890.25
725.14	4836.50
725.26	4893.75
725.38	4824.75
725.50	4895.00
725.62	4893.50
725.74	4879.50
725.85	4895.00
725.97	4874.75
726.09	4928.50
726.21	5212.25
726.33	4909.25
726.45	4874.50
726.57	4857.75
726.69	4915.00
726.81	4882.50
726.92	4883.25
727.04	4867.00
727.16	4894.50
727.28	4863.75
727.40	4889.75
727.52	4870.50
727.64	5038.25
727.76	4969.75
727.88	4894.50
727.99	4849.25
728.11	4849.50
728.23	4877.50
728.35	4864.00
728.47	4863.50
728.59	4879.00
728.71	4909.50
728.83	4920.00
728.94	4912.00
729.06	4968.00
729.18	4934.75
729.30	4889.00
729.42	4874.50
729.54	4969.50
729.66	4975.75
729.78	4889.25
729.90	4908.00
730.01	4881.00
730.13	4792.75
730.25	4873.50
730.37	4856.50
730.49	4898.00
730.61	4875.25
730.73	4865.00
730.84	4894.25
730.96	4889.75
731.08	4897.25
731.20	4865.00
731.32	4849.00
731.44	5004.25
731.56	4876.25
731.68	4809.00
731.79	4884.50
731.91	4857.75
732.03	4845.25
732.15	4854.75
732.27	4822.25
732.39	4828.50
732.51	4902.25
732.62	4812.75
732.74	4824.00
732.86	4933.00
732.98	4876.00
733.10	4841.75
733.22	4836.50
733.34	4861.75
733.45	4806.00
733.57	4834.00
733.69	4793.00
733.81	4855.00
733.93	4860.00
734.05	4767.00
734.17	4809.25
734.28	4831.25
734.40	4817.50
734.52	4776.00
734.64	4797.75
734.76	4911.75
734.88	4814.25
735.00	4797.75
735.11	4819.00
735.23	4892.00
735.35	4788.00
735.47	4778.50
735.59	4865.00
735.71	4810.25
735.83	4830.75
735.94	4860.50
736.06	4832.50
736.18	4883.75
736.30	4875.75
736.42	4842.75
736.54	4807.75
736.65	4854.25
736.77	4953.50
736.89	4851.75
737.01	4811.25
737.13	4916.00
737.25	4745.50
737.36	4761.00
737.48	4788.75
737.60	4814.75
737.72	4782.25
737.84	4754.75
737.96	4815.25
738.08	4772.00
738.19	4886.75
738.31	4764.75
738.43	4788.00
738.55	4772.75
738.67	4801.00
738.79	4720.75
738.90	4757.75
739.02	4808.25
739.14	4714.25
739.26	4744.75
739.38	4757.50
739.50	4825.50
739.61	4763.75
739.73	4781.50
739.85	4747.50
739.97	4790.50
740.09	4787.00
740.20	4682.50
740.32	4742.00
740.44	4793.25
740.56	4713.00
740.68	4733.00
740.80	4737.50
740.91	4757.25
741.03	4776.00
741.15	4763.00
741.27	4726.00
741.39	4782.50
741.51	4772.50
741.62	4773.50
741.74	4763.75
741.86	4734.75
741.98	4710.75
742.10	4748.25
742.21	4705.75
742.33	4740.25
742.45	4675.00
742.57	4758.75
742.69	4696.50
742.80	4758.50
742.92	4713.75
743.04	4709.00
743.16	4664.00
743.28	4778.00
743.40	4662.75
743.51	4654.00
743.63	4650.50
743.75	4696.50
743.87	4703.50
743.99	4709.50
744.10	4720.75
744.22	4667.25
744.34	4656.00
744.46	4695.75
744.58	4705.50
744.69	4621.50
744.81	4693.00
744.93	4634.25
745.05	4592.25
745.17	4746.00
745.28	4734.50
745.40	4674.00
745.52	4650.00
745.64	4658.50
745.76	4690.00
745.87	4632.00
745.99	4604.50
746.11	4664.25
746.23	4593.00
746.35	4640.25
746.46	4615.25
746.58	4743.00
746.70	4646.75
746.82	4625.00
746.94	4617.50
747.05	4601.50
747.17	4566.50
747.29	4602.25
747.41	4582.50
747.53	4756.50
747.64	4605.00
747.76	4671.25
747.88	4652.00
748.00	4647.25
748.12	4606.25
748.23	4604.00
748.35	4607.75
748.47	4649.25
748.59	4618.75
748.70	4587.50
748.82	4533.75
748.94	4549.25
749.06	4548.00
749.18	4579.25
749.29	4539.75
749.41	4585.50
749.53	4521.25
749.65	4549.25
749.76	4609.25
749.88	4526.00
750.00	4563.75
750.12	4615.50
750.24	4567.00
750.35	4585.25
750.47	4498.00
750.59	4561.00
750.71	4507.75
750.82	4564.00
750.94	4514.75
751.06	4526.50
751.18	4477.75
751.30	4565.50
751.41	4551.50
751.53	4503.75
751.65	4476.25
751.77	4489.00
751.88	4525.25
752.00	4526.25
752.12	4419.50
752.24	4570.75
752.35	4527.25
752.47	4503.50
752.59	4503.75
752.71	4554.50
752.83	4465.75
752.94	4539.75
753.06	4437.25
753.18	4492.25
753.30	4448.25
753.41	4427.25
753.53	4431.50
753.65	4453.50
753.77	4525.25
753.88	4423.75
754.00	4459.00
754.12	4460.25
754.24	4523.75
754.35	4436.75
754.47	4384.25
754.59	4486.50
754.71	4435.25
754.82	4432.50
754.94	4386.00
755.06	4461.00
755.18	4443.00
755.29	4438.00
755.41	4365.00
755.53	4446.00
755.65	4373.00
755.76	4416.00
755.88	4375.50
756.00	4464.00
756.12	4370.50
756.23	4272.00
756.35	4339.00
756.47	4382.25
756.59	4364.25
756.70	4318.25
756.82	4327.50
756.94	4332.50
757.06	4371.00
757.17	4344.00
757.29	4315.00
757.41	4294.25
757.53	4357.00
757.64	4331.50
757.76	4295.00
757.88	4359.25
758.00	4368.75
758.11	4301.00
758.23	4251.25
758.35	4321.75
758.47	4270.50
758.58	4335.00
758.70	4255.00
758.82	4309.00
758.94	4227.75
759.05	4290.00
759.17	4236.75
759.29	4270.00
759.40	4331.25
759.52	4241.75
759.64	4241.50
759.76	4276.75
759.87	4312.75
759.99	4262.25
760.11	4234.00
760.23	4265.50
760.34	4292.25
760.46	4260.75
760.58	4231.25
760.70	4234.25
760.81	4259.25
760.93	4226.75
761.05	4258.00
761.16	4235.75
761.28	4216.25
761.40	4189.00
761.52	4143.25
761.63	4256.25
761.75	4215.50
761.87	4169.25
761.98	4172.00
762.10	4226.25
762.22	4179.25
762.34	4223.00
762.45	4155.50
762.57	4220.25
762.69	4288.25
762.81	4138.75
762.92	4165.25
763.04	4075.50
763.16	4173.25
763.27	4187.00
763.39	4107.00
763.51	4178.75
763.63	4174.50
763.74	4122.75
763.86	4068.75
763.98	4101.75
764.09	4114.25
764.21	4112.25
764.33	4061.25
764.44	4064.25
764.56	4113.75
764.68	4068.50
764.80	4081.25
764.91	4045.00
765.03	4159.50
765.15	4079.75
765.26	4082.50
765.38	4030.50
765.50	4125.00
765.62	4086.50
765.73	4069.25
765.85	4083.50
765.97	4006.00
766.08	4072.75
766.20	4047.25
766.32	4052.50
766.43	4076.25
766.55	4080.25
766.67	4036.75
766.79	4044.25
766.90	4010.00
767.02	3953.25
767.14	3980.75
767.25	3970.75
767.37	4123.50
767.49	4037.25
767.60	3992.50
767.72	4051.50
767.84	4033.50
767.95	3976.50
768.07	3967.50
768.19	4023.50
768.31	3992.75
768.42	4004.00
768.54	3988.00
768.66	3987.00
768.77	3973.50
768.89	3966.25
769.01	3929.75
769.12	3983.25
769.24	3987.25
769.36	3928.50
769.47	3896.75
769.59	3892.00
769.71	3978.75
769.82	3926.00
769.94	3905.75
770.06	3867.25
770.17	3977.00
770.29	3923.00
770.41	3910.00
770.53	3953.25
770.64	3863.00
770.76	3890.25
770.88	3893.50
770.99	3944.75
771.11	3852.75
771.23	3896.50
771.34	3881.00
771.46	3985.25
771.58	3953.25
771.69	3894.00
771.81	3868.75
771.93	3913.50
772.04	3810.00
772.16	3864.00
772.28	3844.75
772.39	3902.50
772.51	3853.00
772.63	3882.50
772.74	3816.00
772.86	3843.75
772.98	3955.75
773.09	3807.50
773.21	3792.50
773.33	3844.25
773.44	3844.50
773.56	3781.75
773.68	3808.00
773.79	3863.75
773.91	3756.50
774.03	3784.00
774.14	3771.00
774.26	3826.50
774.38	3727.00
774.49	3713.50
774.61	3738.25
774.73	3772.50
774.84	3743.50
774.96	3726.25
775.08	3730.50
775.19	3739.75
775.31	3777.25
775.43	3726.75
775.54	3699.75
775.66	3668.50
775.77	3777.75
775.89	3674.75
776.01	3743.25
776.12	3755.00
776.24	3725.00
776.36	3667.50
776.47	3656.25
776.59	3711.50
776.71	3723.25
776.82	3614.00
776.94	3641.50
777.06	3671.50
777.17	3726.75
777.29	3630.75
777.41	3646.50
777.52	3683.00
777.64	3646.00
777.75	3661.00
777.87	3572.25
777.99	3596.25
778.10	3678.00
778.22	3602.00
778.34	3630.25
778.45	3609.75
778.57	3681.25
778.69	3637.25
778.80	3602.75
778.92	3714.75
779.04	3602.00
779.15	3603.50
779.27	3623.00
779.38	3626.00
779.50	3647.00
779.62	3524.50
779.73	3568.00
779.85	3510.75
779.97	3667.00
780.08	3551.75
780.20	3556.50
780.31	3578.25
780.43	3563.00
780.55	3519.00
780.66	3534.25
780.78	3593.25
780.90	3628.00
781.01	3500.25
781.13	3510.75
781.25	3507.75
781.36	3569.00
781.48	3470.75
781.59	3479.00
781.71	3528.50
781.83	3519.75
781.94	3487.50
782.06	3460.50
782.18	3539.75
782.29	3467.00
782.41	3425.00
782.52	3516.00
782.64	3522.50
782.76	3465.25
782.87	3474.25
782.99	3425.75
783.10	3586.50
783.22	3614.50
783.34	3454.75
783.45	3458.50
783.57	3447.00
783.69	3412.00
783.80	3432.25
783.92	3426.25
784.03	3441.00
784.15	3391.75
784.27	3407.75
784.38	3387.75
784.50	3360.75
784.61	3387.75
784.73	3350.25
784.85	3373.75
784.96	3352.75
785.08	3412.50
785.19	3418.25
785.31	3369.00
785.43	3319.25
785.54	3329.00
785.66	3381.75
785.77	3349.00
785.89	3380.00
786.01	3289.25
786.12	3331.50
786.24	3336.50
786.35	3434.25
786.47	3343.00
786.59	3296.00
786.70	3282.50
786.82	3349.25
786.93	3335.00
787.05	3313.25
787.17	3297.50
787.28	3317.75
787.40	3332.00
787.51	3329.75
787.63	3332.00
787.75	3246.50
787.86	3298.00
787.98	3303.75
788.09	3275.25
788.21	3294.50
788.33	3294.75
788.44	3281.25
788.56	3229.00
788.67	3312.25
788.79	3224.00
788.91	3256.50
789.02	3231.75
789.14	3250.00
789.25	3335.75
789.37	3268.25
789.48	3217.00
789.60	3238.25
789.72	3187.00
789.83	3240.50
789.95	3223.25
790.06	3157.75
790.18	3178.25
790.30	3218.75
790.41	3217.50
790.53	3188.25
790.64	3146.25
790.76	3126.50
790.87	3163.00
790.99	3172.50
791.11	3174.25
791.22	3137.00
791.34	3174.00
791.45	3204.75
791.57	3176.25
791.68	3131.00
791.80	3126.50
791.92	3207.75
792.03	3117.75
792.15	3100.00
792.26	3132.00
792.38	3110.75
792.49	3157.50
792.61	3107.50
792.73	3140.25
792.84	3118.25
792.96	3228.50
793.07	3095.50
793.19	3925.75
793.30	3206.00
793.42	3141.00
793.54	3045.25
793.65	3055.75
793.77	3254.00
793.88	3089.00
794.00	3038.75
794.11	3075.75
794.23	3017.00
794.34	3087.25
794.46	3011.75
794.58	3031.50
794.69	3163.75
794.81	3135.25
794.92	3035.75
795.04	3008.25
795.15	3123.50
795.27	3062.75
795.39	3043.00
795.50	3011.25
795.62	3009.25
795.73	3020.00
795.85	2999.50
795.96	3038.25
796.08	3097.00
796.19	2995.50
796.31	2994.50
796.42	2963.75
796.54	2978.25
796.66	3062.25
796.77	2983.25
796.89	2939.75
797.00	3049.00
797.12	2896.25
797.23	2976.75
797.35	2995.00
797.46	3019.75
797.58	3019.25
797.69	2971.50
797.81	2927.75
797.93	2954.00
798.04	2920.50
798.16	2911.00
798.27	2948.00
798.39	2892.25
798.50	2886.25
798.62	2894.00
798.73	2882.50
798.85	2977.00
798.96	2921.25
799.08	2941.50
799.19	2941.75
799.31	2916.75
799.43	2933.50
799.54	2873.75
799.66	2905.50
799.77	2938.75
799.89	2835.00
800.00	2824.00
800.12	2872.25
800.23	2946.75
800.35	2956.00
800.46	2806.00
800.58	2786.50
800.69	2851.50
800.81	2835.25
800.92	2812.75
801.04	2846.75
801.16	2785.25
801.27	2784.50
801.39	2806.50
801.50	2804.25
801.62	2805.00
801.73	2871.75
801.85	2850.00
801.96	2768.25
802.08	2856.75
802.19	2852.25
802.31	2773.00
802.42	2809.50
802.54	2884.00
802.65	2861.50
802.77	2736.25
802.88	2825.25
803.00	2741.75
803.11	2884.50
803.23	2786.00
803.34	2759.75
803.46	2787.50
803.57	2722.50
803.69	2794.25
803.80	2714.00
803.92	2813.25
804.03	2754.50
804.15	2774.25
804.26	2758.00
804.38	2796.75
804.50	2722.75
804.61	2755.75
804.73	2739.50
804.84	2752.50
804.96	2655.25
805.07	2699.00
805.19	2674.25
805.30	2727.75
805.42	2756.50
805.53	2689.50
805.65	2641.50
805.76	2619.50
805.88	2646.50
805.99	2665.25
806.11	2666.00
806.22	2618.50
806.34	2620.75
806.45	2624.50
806.57	2615.00
806.68	2641.75
806.80	2545.75
806.91	2544.00
807.03	2533.00
807.14	2506.75
807.26	2509.75
807.37	2501.75
807.49	2543.25
807.60	2500.25
807.72	2592.00
807.83	2559.25
807.95	2502.25
808.06	2505.00
808.17	2506.25
808.29	2505.50
808.40	2418.50
808.52	2422.25
808.63	2445.25
808.75	2424.00
808.86	2407.00
808.98	2426.50
809.09	2367.75
809.21	2389.25
809.32	2354.75
809.44	2385.25
809.55	2303.25
809.67	2337.50
809.78	2287.50
809.90	2362.75
810.01	2390.50
810.13	2286.75
810.24	2321.75
810.36	2240.25
810.47	2293.00
810.59	2271.75
810.70	2272.75
810.82	2284.50
810.93	2172.50
811.05	2178.50
811.16	2169.75
811.27	2178.25
811.39	2185.50
811.50	2204.75
811.62	2089.00
811.73	2074.75
811.85	2133.75
811.96	2114.75
812.08	2124.75
812.19	2090.00
812.31	2110.00
812.42	2081.00
812.54	2043.50
812.65	2119.25
812.77	2100.75
812.88	2062.00
813.00	2041.50
813.11	2033.75
813.22	1973.25
813.34	1971.00
813.45	1972.00
813.57	2053.50
813.68	2042.75
813.80	1959.75
813.91	1898.75
814.03	1919.00
814.14	2003.25
814.26	1884.75
814.37	1880.25
814.49	1875.25
814.60	1868.00
814.71	1841.00
814.83	1823.75
814.94	1797.00
815.06	1812.75
815.17	1811.75
815.29	1791.50
815.40	1759.25
815.52	1885.00
815.63	1768.50
815.75	1745.25
815.86	1757.00
815.97	1701.50
816.09	1732.75
816.20	1742.25
816.32	1752.50
816.43	1660.50
816.55	1707.25
816.66	1660.50
816.78	1782.00
816.89	1671.00
817.00	1663.50
817.12	1630.25
817.23	1618.75
817.35	1673.50
817.46	1627.50
817.58	1582.75
817.69	1685.50
817.81	1588.25
817.92	1618.75
818.03	1578.25
818.15	1569.50
818.26	1518.50
818.38	1501.75
818.49	1517.75
818.61	1548.75
818.72	1481.50
818.83	2782.25
818.95	1663.50
819.06	1472.50
819.18	1459.00
819.29	1500.25
819.41	1459.75
819.52	1479.50
819.64	1463.00
819.75	1397.00
819.86	1372.75
819.98	1403.00
820.09	1424.50
820.21	1396.25
820.32	1342.75
820.44	1396.25
820.55	1441.00
820.66	1339.25
820.78	1373.75
820.89	1326.50
821.01	1368.50
821.12	1330.75
821.23	1319.50
821.35	1295.25
821.46	1348.25
821.58	1288.50
821.69	1273.25
821.81	1235.25
821.92	1330.50
822.03	1247.25
822.15	1253.75
822.26	1195.25
822.38	1210.00
822.49	1227.50
822.61	1216.00
822.72	1232.00
822.83	1252.75
822.95	1184.25
823.06	1193.25
823.18	1225.75
823.29	1255.50
823.40	1180.00
823.52	1142.50
823.63	1104.00
823.75	1239.50
823.86	1128.75
823.97	1064.50
824.09	1146.00
824.20	1067.25
824.32	1097.50
824.43	1075.75
824.55	1133.25
824.66	1177.25
824.77	1065.50
824.89	1075.25
825.00	1140.00
825.12	1067.75
825.23	1076.25
825.34	998.00
825.46	997.50
825.57	1065.25
825.69	1007.25
825.80	943.00
825.91	980.00
826.03	951.25
826.14	1014.00
826.26	946.25
826.37	977.75
826.48	964.50
826.60	970.50
826.71	913.50
826.83	955.50
826.94	960.50
827.05	976.25
827.17	966.50
827.28	928.50
827.39	908.75
827.51	876.50
827.62	905.75
827.74	907.25
827.85	891.75
827.96	871.75
828.08	887.25
828.19	997.25
828.31	885.50
828.42	821.00
828.53	897.75
828.65	929.00
828.76	934.75
828.87	893.25
828.99	835.25
