Wavelength (nm)	Intensity
377.35	822.00
377.48	613.00
377.62	614.00
377.75	623.00
377.88	845.00
378.02	836.50
378.15	829.00
378.28	808.00
378.41	888.00
378.55	858.00
378.68	824.00
378.81	807.50
378.95	841.00
379.08	833.00
379.21	791.50
379.35	858.50
379.48	855.50
379.61	926.50
379.74	830.00
379.88	807.50
380.01	890.50
380.14	969.50
380.28	865.00
380.41	804.00
380.54	851.00
380.68	871.00
380.81	775.50
380.94	880.00
381.07	926.00
381.21	920.00
381.34	829.00
381.47	783.00
381.61	989.50
381.74	854.00
381.87	791.50
382.00	864.50
382.14	935.00
382.27	877.50
382.40	818.50
382.54	904.00
382.67	908.50
382.80	810.00
382.93	802.00
383.07	842.00
383.20	851.00
383.33	885.50
383.47	807.00
383.60	795.50
383.73	990.50
383.86	872.00
384.00	823.00
384.13	819.00
384.26	871.50
384.40	897.50
384.53	838.00
384.66	884.50
384.79	852.50
384.93	821.00
385.06	826.50
385.19	839.00
385.33	959.50
385.46	881.00
385.59	801.50
385.72	850.50
385.86	774.50
385.99	829.50
386.12	828.00
386.25	799.50
386.39	899.00
386.52	899.00
386.65	825.50
386.79	816.00
386.92	814.00
387.05	923.00
387.18	793.00
387.32	809.00
387.45	879.00
387.58	849.00
387.71	817.00
387.85	809.50
387.98	864.50
388.11	881.50
388.25	844.50
388.38	837.00
388.51	872.00
388.64	887.50
388.78	813.00
388.91	787.50
389.04	842.00
389.17	941.50
389.31	833.00
389.44	860.00
389.57	900.50
389.70	870.50
389.84	817.50
389.97	798.50
390.10	815.50
390.24	858.50
390.37	832.50
390.50	821.00
390.63	914.50
390.77	836.50
390.90	848.00
391.03	832.00
391.16	792.00
391.30	822.00
391.43	815.00
391.56	818.00
391.69	804.50
391.83	897.00
391.96	839.00
392.09	819.00
392.22	944.00
392.36	869.50
392.49	803.00
392.62	825.00
392.75	879.00
392.89	910.50
393.02	803.50
393.15	800.00
393.28	791.00
393.42	948.50
393.55	793.00
393.68	816.50
393.81	776.00
393.95	825.50
394.08	803.00
394.21	800.00
394.34	880.50
394.48	876.50
394.61	875.00
394.74	841.50
394.87	884.00
395.01	862.00
395.14	857.50
395.27	797.00
395.40	937.50
395.54	953.00
395.67	848.50
395.80	821.00
395.93	870.50
396.07	814.00
396.20	812.00
396.33	764.00
396.46	816.00
396.59	828.00
396.73	817.50
396.86	802.50
396.99	894.00
397.12	858.50
397.26	856.00
397.39	836.00
397.52	1165.50
397.65	963.00
397.79	830.00
397.92	821.50
398.05	891.00
398.18	828.50
398.32	825.00
398.45	847.00
398.58	856.00
398.71	876.00
398.84	789.00
398.98	828.00
399.11	873.50
399.24	866.00
399.37	824.50
399.51	797.00
399.64	843.50
399.77	847.50
399.90	842.50
400.03	832.50
400.17	799.50
400.30	902.00
400.43	871.50
400.56	832.50
400.70	839.00
400.83	810.50
400.96	801.50
401.09	841.00
401.23	852.50
401.36	905.50
401.49	819.00
401.62	837.50
401.75	845.00
401.89	813.00
402.02	811.00
402.15	827.00
402.28	869.00
402.41	858.00
402.55	814.50
402.68	824.50
402.81	911.00
402.94	879.00
403.08	807.00
403.21	805.00
403.34	887.00
403.47	880.00
403.60	826.00
403.74	857.00
403.87	875.00
404.00	809.00
404.13	808.50
404.26	786.00
404.40	795.00
404.53	858.50
404.66	828.50
404.79	787.50
404.93	886.00
405.06	847.00
405.19	774.50
405.32	838.00
405.45	850.50
405.59	875.00
405.72	834.50
405.85	802.00
405.98	1010.50
406.11	818.50
406.25	802.00
406.38	824.00
406.51	863.50
406.64	834.00
406.77	792.50
406.91	788.00
407.04	866.00
407.17	832.50
407.30	854.50
407.43	834.50
407.57	917.50
407.70	893.00
407.83	799.00
407.96	834.50
408.09	788.50
408.23	928.00
408.36	834.00
408.49	811.50
408.62	965.50
408.75	858.50
408.89	818.00
409.02	853.00
409.15	837.00
409.28	935.50
409.41	850.00
409.55	800.50
409.68	963.00
409.81	872.50
409.94	813.50
410.07	839.50
410.20	857.50
410.34	825.50
410.47	824.00
410.60	830.00
410.73	880.50
410.86	816.50
411.00	822.00
411.13	802.50
411.26	856.00
411.39	844.00
411.52	853.00
411.66	819.50
411.79	830.00
411.92	818.00
412.05	822.00
412.18	815.50
412.31	875.50
412.45	873.00
412.58	873.00
412.71	785.50
412.84	857.50
412.97	941.50
413.11	833.00
413.24	849.50
413.37	884.00
413.50	950.50
413.63	849.00
413.76	819.00
413.90	878.00
414.03	823.00
414.16	811.50
414.29	853.50
414.42	831.50
414.56	961.00
414.69	817.00
414.82	834.00
414.95	838.50
415.08	854.00
415.21	832.50
415.35	843.50
415.48	764.00
415.61	882.50
415.74	885.50
415.87	786.00
416.00	849.50
416.14	973.00
416.27	842.00
416.40	801.50
416.53	836.00
416.66	872.00
416.79	835.50
416.93	797.50
417.06	910.00
417.19	855.00
417.32	823.00
417.45	804.00
417.58	792.50
417.72	896.00
417.85	816.00
417.98	821.50
418.11	875.50
418.24	809.00
418.37	812.00
418.51	828.50
418.64	849.00
418.77	923.50
418.90	845.50
419.03	800.50
419.16	851.50
419.29	891.50
419.43	807.00
419.56	793.00
419.69	954.50
419.82	897.00
419.95	832.50
420.08	875.00
420.22	918.00
420.35	973.50
420.48	874.50
420.61	815.50
420.74	788.00
420.87	881.00
421.00	793.00
421.14	815.50
421.27	879.00
421.40	908.50
421.53	867.00
421.66	837.00
421.79	834.50
421.93	836.00
422.06	827.00
422.19	804.50
422.32	898.00
422.45	890.50
422.58	848.50
422.71	814.50
422.85	893.00
422.98	895.50
423.11	793.00
423.24	774.00
423.37	794.00
423.50	812.00
423.63	835.50
423.77	807.00
423.90	809.00
424.03	860.50
424.16	860.50
424.29	818.00
424.42	778.50
424.55	809.00
424.69	796.50
424.82	826.50
424.95	858.00
425.08	810.50
425.21	844.50
425.34	823.00
425.47	834.00
425.60	862.00
425.74	789.00
425.87	824.00
426.00	843.00
426.13	859.00
426.26	806.00
426.39	805.50
426.52	827.50
426.66	913.00
426.79	863.50
426.92	811.50
427.05	943.00
427.18	891.00
427.31	823.00
427.44	821.00
427.57	817.00
427.71	842.00
427.84	795.00
427.97	824.50
428.10	905.50
428.23	853.50
428.36	814.50
428.49	741.00
428.62	973.50
428.76	940.50
428.89	847.00
429.02	783.00
429.15	836.00
429.28	950.00
429.41	806.50
429.54	821.50
429.67	829.00
429.81	876.00
429.94	834.00
430.07	812.50
430.20	886.50
430.33	918.50
430.46	804.50
430.59	804.50
430.72	850.00
430.85	792.00
430.99	821.50
431.12	803.50
431.25	908.00
431.38	918.50
431.51	841.00
431.64	845.50
431.77	919.50
431.90	919.50
432.03	833.00
432.17	805.00
432.30	862.00
432.43	870.00
432.56	839.50
432.69	848.00
432.82	870.50
432.95	900.50
433.08	842.00
433.21	829.00
433.35	822.50
433.48	828.00
433.61	785.50
433.74	830.50
433.87	821.50
434.00	886.00
434.13	792.50
434.26	855.00
434.39	859.50
434.53	882.50
434.66	831.50
434.79	837.00
434.92	829.50
435.05	912.50
435.18	806.00
435.31	858.00
435.44	911.00
435.57	864.00
435.70	828.00
435.84	793.50
435.97	915.50
436.10	965.50
436.23	813.00
436.36	806.50
436.49	830.50
436.62	856.50
436.75	826.50
436.88	858.50
437.01	810.50
437.14	803.00
437.28	781.50
437.41	809.00
437.54	902.00
437.67	882.00
437.80	819.00
437.93	793.00
438.06	976.00
438.19	895.50
438.32	792.50
438.45	792.50
438.58	853.00
438.72	927.50
438.85	872.50
438.98	821.50
439.11	865.50
439.24	920.00
439.37	900.00
439.50	862.00
439.63	902.50
439.76	827.50
439.89	811.00
440.02	802.50
440.15	861.00
440.29	921.00
440.42	826.00
440.55	820.00
440.68	920.50
440.81	978.00
440.94	847.00
441.07	839.00
441.20	944.00
441.33	869.00
441.46	823.00
441.59	813.00
441.72	839.00
441.85	854.50
441.99	872.50
442.12	860.50
442.25	946.50
442.38	878.00
442.51	858.50
442.64	788.50
442.77	850.50
442.90	820.00
443.03	784.50
443.16	809.50
443.29	845.00
443.42	917.00
443.55	827.50
443.68	844.50
443.82	797.00
443.95	833.50
444.08	824.00
444.21	828.50
444.34	817.00
444.47	852.50
444.60	838.50
444.73	849.00
444.86	840.00
444.99	914.50
445.12	850.00
445.25	843.50
445.38	867.00
445.51	896.50
445.64	852.00
445.78	811.50
445.91	788.50
446.04	969.00
446.17	875.00
446.30	788.50
446.43	868.50
446.56	850.50
446.69	806.00
446.82	813.00
446.95	891.00
447.08	897.00
447.21	839.00
447.34	814.00
447.47	895.50
447.60	881.50
447.73	835.00
447.86	876.50
447.99	845.00
448.13	867.00
448.26	878.00
448.39	819.00
448.52	883.00
448.65	888.00
448.78	826.50
448.91	826.50
449.04	877.50
449.17	825.50
449.30	852.00
449.43	838.50
449.56	840.00
449.69	923.00
449.82	833.50
449.95	809.50
450.08	908.00
450.21	887.00
450.34	837.50
450.47	842.50
450.60	882.00
450.73	845.50
450.87	813.50
451.00	847.50
451.13	879.00
451.26	1006.00
451.39	833.00
451.52	851.00
451.65	834.00
451.78	842.00
451.91	822.50
452.04	803.00
452.17	931.00
452.30	932.00
452.43	822.00
452.56	822.00
452.69	901.00
452.82	811.00
452.95	878.50
453.08	815.00
453.21	778.00
453.34	889.50
453.47	809.00
453.60	880.50
453.73	942.00
453.86	884.50
453.99	857.50
454.12	852.00
454.25	850.50
454.38	865.00
454.52	801.50
454.65	828.00
454.78	820.00
454.91	791.50
455.04	803.00
455.17	794.50
455.30	812.00
455.43	912.50
455.56	831.00
455.69	794.00
455.82	866.00
455.95	875.00
456.08	789.50
456.21	781.50
456.34	777.00
456.47	780.00
456.60	832.00
456.73	811.50
456.86	825.00
456.99	875.50
457.12	808.00
457.25	809.00
457.38	913.00
457.51	879.50
457.64	850.00
457.77	824.50
457.90	847.00
458.03	844.50
458.16	836.00
458.29	837.50
458.42	839.00
458.55	764.50
458.68	804.00
458.81	826.00
458.94	913.00
459.07	949.00
459.20	804.00
459.33	796.00
459.46	905.00
459.59	940.00
459.72	888.00
459.85	831.00
459.98	917.50
460.11	877.50
460.24	849.00
460.37	794.50
460.50	880.00
460.63	874.00
460.76	826.00
460.89	848.50
461.02	874.00
461.15	872.00
461.28	838.50
461.41	816.50
461.54	929.50
461.67	814.00
461.80	828.50
461.93	886.50
462.06	875.50
462.19	900.00
462.32	835.00
462.45	826.00
462.58	873.50
462.71	830.00
462.84	822.50
462.97	770.00
463.10	834.00
463.23	863.00
463.36	871.50
463.49	838.00
463.62	788.00
463.75	875.50
463.88	820.50
464.01	821.50
464.14	793.50
464.27	945.50
464.40	837.50
464.53	827.00
464.66	884.50
464.79	872.00
464.92	852.00
465.05	806.50
465.18	858.00
465.31	843.50
465.44	821.50
465.57	803.00
465.70	843.50
465.83	967.00
465.96	840.50
466.09	798.00
466.22	887.50
466.35	876.00
466.48	813.00
466.61	814.00
466.74	842.00
466.87	904.50
467.00	864.50
467.13	863.00
467.26	901.00
467.39	803.00
467.52	793.00
467.65	830.50
467.78	919.50
467.91	847.50
468.04	848.00
468.17	813.50
468.30	838.50
468.43	801.50
468.56	808.00
468.69	851.50
468.82	859.50
468.95	805.50
469.08	824.50
469.21	834.50
469.34	892.00
469.47	957.50
469.60	934.50
469.73	845.50
469.86	858.00
469.99	881.50
470.11	809.00
470.24	825.00
470.37	891.00
470.50	866.50
470.63	820.50
470.76	841.50
470.89	879.00
471.02	954.00
471.15	828.50
471.28	826.00
471.41	949.50
471.54	877.00
471.67	825.00
471.80	772.50
471.93	899.50
472.06	878.00
472.19	833.00
472.32	810.00
472.45	951.00
472.58	898.00
472.71	847.50
472.84	820.50
472.97	817.50
473.10	799.00
473.23	875.00
473.36	792.00
473.49	918.50
473.62	897.50
473.74	864.00
473.87	877.00
474.00	829.50
474.13	829.50
474.26	849.00
474.39	876.50
474.52	855.50
474.65	843.50
474.78	847.00
474.91	798.50
475.04	869.50
475.17	979.50
475.30	867.50
475.43	865.50
475.56	921.00
475.69	859.00
475.82	865.00
475.95	818.50
476.08	932.00
476.21	853.50
476.34	888.00
476.46	886.00
476.59	930.00
476.72	848.00
476.85	842.50
476.98	818.50
477.11	903.50
477.24	856.50
477.37	776.00
477.50	823.50
477.63	862.50
477.76	808.50
477.89	771.50
478.02	807.50
478.15	842.50
478.28	829.50
478.41	862.50
478.54	832.50
478.66	901.00
478.79	851.00
478.92	835.50
479.05	833.00
479.18	861.50
479.31	825.00
479.44	813.50
479.57	812.50
479.70	830.50
479.83	859.00
479.96	829.00
480.09	868.00
480.22	986.50
480.35	970.00
480.48	895.50
480.60	867.00
480.73	850.00
480.86	875.50
480.99	834.00
481.12	842.50
481.25	857.50
481.38	915.00
481.51	836.50
481.64	843.00
481.77	879.00
481.90	848.00
482.03	840.00
482.16	831.00
482.29	918.50
482.41	846.00
482.54	862.50
482.67	826.50
482.80	847.50
482.93	888.50
483.06	809.00
483.19	908.00
483.32	880.50
483.45	854.50
483.58	860.50
483.71	878.00
483.84	910.00
483.97	881.50
484.09	845.50
484.22	834.50
484.35	823.00
484.48	797.00
484.61	826.00
484.74	822.00
484.87	869.50
485.00	817.00
485.13	861.50
485.26	808.00
485.39	893.50
485.52	852.50
485.64	922.00
485.77	869.00
485.90	908.50
486.03	812.00
486.16	853.50
486.29	806.00
486.42	852.00
486.55	874.00
486.68	845.00
486.81	867.50
486.94	863.50
487.06	839.00
487.19	882.50
487.32	870.00
487.45	864.50
487.58	830.50
487.71	851.00
487.84	817.50
487.97	885.50
488.10	914.50
488.23	832.00
488.35	800.50
488.48	848.00
488.61	806.00
488.74	833.50
488.87	824.00
489.00	859.00
489.13	952.00
489.26	875.00
489.39	887.00
489.52	889.50
489.64	885.50
489.77	859.50
489.90	861.00
490.03	838.00
490.16	843.50
490.29	823.50
490.42	821.50
490.55	879.00
490.68	825.50
490.81	827.50
490.93	799.00
491.06	927.50
491.19	881.00
491.32	855.00
491.45	886.00
491.58	812.50
491.71	849.50
491.84	842.00
491.97	837.00
492.09	929.50
492.22	887.50
492.35	862.50
492.48	881.50
492.61	866.50
492.74	857.00
492.87	854.00
493.00	847.00
493.12	825.50
493.25	873.00
493.38	847.00
493.51	815.00
493.64	802.00
493.77	855.50
493.90	863.00
494.03	886.50
494.16	921.50
494.28	932.00
494.41	840.00
494.54	856.50
494.67	975.00
494.80	941.50
494.93	870.50
495.06	865.00
495.19	866.50
495.31	854.00
495.44	830.50
495.57	817.00
495.70	897.00
495.83	858.00
495.96	811.50
496.09	856.00
496.22	927.00
496.34	959.50
496.47	849.00
496.60	882.00
496.73	916.50
496.86	896.00
496.99	830.00
497.12	864.00
497.24	800.50
497.37	865.50
497.50	844.50
497.63	816.50
497.76	845.00
497.89	932.50
498.02	877.00
498.15	788.50
498.27	859.00
498.40	910.00
498.53	912.00
498.66	864.50
498.79	897.00
498.92	818.00
499.05	856.50
499.17	856.00
499.30	897.00
499.43	953.00
499.56	879.00
499.69	799.00
499.82	877.00
499.95	852.00
500.07	836.50
500.20	845.00
500.33	905.00
500.46	1013.00
500.59	870.50
500.72	872.50
500.85	908.00
500.97	905.00
501.10	899.50
501.23	813.50
501.36	877.50
501.49	939.00
501.62	888.00
501.75	865.50
501.87	921.50
502.00	815.00
502.13	886.00
502.26	875.00
502.39	832.50
502.52	845.50
502.64	803.50
502.77	835.00
502.90	888.50
503.03	870.50
503.16	841.00
503.29	831.50
503.42	920.00
503.54	890.50
503.67	873.00
503.80	863.50
503.93	921.00
504.06	836.50
504.19	854.50
504.31	911.50
504.44	888.50
504.57	885.50
504.70	864.50
504.83	820.00
504.96	896.00
505.08	865.50
505.21	873.00
505.34	971.50
505.47	925.50
505.60	907.00
505.73	916.50
505.85	895.00
505.98	1001.50
506.11	868.00
506.24	835.00
506.37	821.50
506.50	873.50
506.62	916.00
506.75	844.50
506.88	837.50
507.01	887.50
507.14	824.50
507.27	852.50
507.39	823.00
507.52	838.50
507.65	852.00
507.78	873.00
507.91	823.50
508.04	927.00
508.16	916.50
508.29	885.00
508.42	841.50
508.55	829.50
508.68	843.50
508.81	899.50
508.93	837.50
509.06	861.50
509.19	906.50
509.32	891.00
509.45	868.50
509.57	888.50
509.70	856.50
509.83	863.50
509.96	822.00
510.09	866.00
510.22	859.00
510.34	872.50
510.47	862.00
510.60	973.00
510.73	893.50
510.86	889.00
510.98	853.00
511.11	850.00
511.24	923.50
511.37	882.50
511.50	844.50
511.63	876.00
511.75	875.50
511.88	857.50
512.01	886.50
512.14	872.00
512.27	884.50
512.39	870.00
512.52	852.50
512.65	868.00
512.78	838.00
512.91	868.00
513.03	857.50
513.16	924.00
513.29	882.50
513.42	854.50
513.55	818.50
513.67	902.50
513.80	812.00
513.93	837.00
514.06	835.50
514.19	890.00
514.31	881.50
514.44	900.50
514.57	847.00
514.70	873.00
514.83	938.50
514.95	841.50
515.08	878.00
515.21	890.00
515.34	894.50
515.47	869.00
515.59	831.00
515.72	904.00
515.85	901.50
515.98	928.00
516.11	878.50
516.23	911.50
516.36	943.50
516.49	891.50
516.62	875.50
516.75	942.00
516.87	938.00
517.00	848.00
517.13	888.50
517.26	927.00
517.39	906.50
517.51	810.00
517.64	866.00
517.77	954.50
517.90	834.00
518.02	867.50
518.15	829.50
518.28	797.50
518.41	883.50
518.54	869.50
518.66	882.50
518.79	833.50
518.92	855.50
519.05	832.00
519.18	856.50
519.30	905.00
519.43	832.50
519.56	848.50
519.69	841.50
519.81	912.00
519.94	860.50
520.07	797.00
520.20	826.00
520.33	884.50
520.45	941.00
520.58	868.00
520.71	888.50
520.84	937.00
520.96	896.00
521.09	864.00
521.22	837.00
521.35	907.50
521.48	896.50
521.60	847.00
521.73	880.00
521.86	931.50
521.99	961.00
522.11	901.00
522.24	878.50
522.37	897.50
522.50	888.50
522.62	925.00
522.75	811.50
522.88	890.50
523.01	848.00
523.14	894.50
523.26	889.00
523.39	947.00
523.52	864.00
523.65	970.00
523.77	900.50
523.90	886.50
524.03	869.50
524.16	852.50
524.28	859.00
524.41	858.00
524.54	867.50
524.67	830.00
524.79	845.50
524.92	896.50
525.05	947.00
525.18	838.50
525.31	899.00
525.43	838.00
525.56	1006.00
525.69	856.00
525.82	805.50
525.94	919.50
526.07	926.00
526.20	905.50
526.33	920.50
526.45	1007.50
526.58	987.50
526.71	892.50
526.84	869.00
526.96	893.50
527.09	834.00
527.22	868.50
527.35	858.00
527.47	830.00
527.60	935.50
527.73	840.50
527.86	884.00
527.98	896.00
528.11	898.00
528.24	830.50
528.37	855.00
528.49	834.50
528.62	874.00
528.75	899.50
528.88	837.50
529.00	906.00
529.13	928.50
529.26	865.00
529.39	908.50
529.51	1019.00
529.64	973.50
529.77	859.50
529.90	855.50
530.02	860.50
530.15	846.00
530.28	813.50
530.40	838.00
530.53	877.00
530.66	910.50
530.79	863.50
530.91	860.00
531.04	851.50
531.17	875.50
531.30	857.00
531.42	883.00
531.55	892.00
531.68	956.00
531.81	856.00
531.93	857.50
532.06	884.00
532.19	852.50
532.31	869.50
532.44	866.50
532.57	910.00
532.70	856.00
532.82	877.50
532.95	882.00
533.08	956.00
533.21	911.50
533.33	841.00
533.46	853.50
533.59	877.00
533.71	995.50
533.84	886.00
533.97	842.00
534.10	850.50
534.22	852.50
534.35	866.50
534.48	873.00
534.61	913.00
534.73	809.50
534.86	844.50
534.99	888.00
535.11	936.50
535.24	901.50
535.37	852.50
535.50	829.00
535.62	848.50
535.75	944.50
535.88	871.00
536.00	850.00
536.13	872.00
536.26	886.50
536.39	846.00
536.51	836.50
536.64	901.00
536.77	896.00
536.89	879.50
537.02	871.50
537.15	897.00
537.28	871.50
537.40	874.50
537.53	844.00
537.66	906.00
537.78	867.50
537.91	846.00
538.04	863.50
538.17	931.00
538.29	908.00
538.42	949.50
538.55	921.00
538.67	905.00
538.80	854.00
538.93	886.50
539.05	872.50
539.18	954.50
539.31	933.50
539.44	883.00
539.56	809.00
539.69	876.00
539.82	860.50
539.94	870.50
540.07	853.50
540.20	945.00
540.32	859.00
540.45	870.50
540.58	877.50
540.71	942.50
540.83	841.50
540.96	856.00
541.09	874.50
541.21	961.00
541.34	947.00
541.47	856.50
541.59	887.50
541.72	970.00
541.85	1037.50
541.98	929.00
542.10	874.50
542.23	904.00
542.36	982.50
542.48	897.50
542.61	872.00
542.74	843.50
542.86	857.00
542.99	860.50
543.12	859.00
543.24	897.50
543.37	827.00
543.50	876.00
543.62	844.50
543.75	878.50
543.88	862.50
544.01	885.00
544.13	889.50
544.26	909.00
544.39	870.50
544.51	854.00
544.64	832.00
544.77	906.00
544.89	871.50
545.02	893.00
545.15	840.50
545.27	970.50
545.40	938.00
545.53	914.00
545.65	907.50
545.78	814.50
545.91	840.50
546.03	859.00
546.16	868.50
546.29	862.50
546.41	830.00
546.54	871.00
546.67	842.50
546.79	920.00
546.92	957.50
547.05	828.00
547.17	882.50
547.30	843.00
547.43	906.00
547.56	841.00
547.68	864.00
547.81	832.50
547.94	903.00
548.06	866.00
548.19	846.00
548.32	950.00
548.44	894.00
548.57	890.00
548.70	912.00
548.82	920.00
548.95	911.00
549.08	871.00
549.20	863.50
549.33	975.00
549.45	888.50
549.58	867.50
549.71	837.00
549.83	937.00
549.96	844.00
550.09	882.50
550.21	856.50
550.34	885.00
550.47	862.50
550.59	859.50
550.72	803.00
550.85	882.00
550.97	942.00
551.10	859.50
551.23	865.00
551.35	944.00
551.48	884.50
551.61	863.00
551.73	851.50
551.86	964.00
551.99	951.50
552.11	876.00
552.24	897.50
552.37	893.00
552.49	852.00
552.62	848.50
552.75	905.50
552.87	863.50
553.00	871.50
553.12	895.50
553.25	864.50
553.38	901.00
553.50	929.00
553.63	870.50
553.76	812.00
553.88	891.00
554.01	875.00
554.14	871.00
554.26	904.00
554.39	961.50
554.52	887.50
554.64	869.00
554.77	852.00
554.89	918.50
555.02	932.50
555.15	892.50
555.27	871.00
555.40	889.00
555.53	945.50
555.65	872.00
555.78	838.50
555.91	905.00
556.03	941.50
556.16	848.00
556.29	879.50
556.41	959.50
556.54	951.00
556.66	881.50
556.79	864.50
556.92	891.50
557.04	908.50
557.17	878.50
557.30	854.50
557.42	872.50
557.55	886.00
557.67	891.00
557.80	869.00
557.93	886.00
558.05	888.50
558.18	834.50
558.31	872.00
558.43	933.00
558.56	902.50
558.68	878.50
558.81	854.00
558.94	879.00
559.06	1000.50
559.19	870.50
559.32	862.50
559.44	847.00
559.57	892.00
559.69	854.50
559.82	864.00
559.95	864.00
560.07	859.50
560.20	793.00
560.33	863.50
560.45	895.50
560.58	826.50
560.70	868.00
560.83	836.50
560.96	879.00
561.08	877.50
561.21	899.50
561.33	840.00
561.46	830.50
561.59	917.50
561.71	857.50
561.84	880.00
561.97	847.00
562.09	915.00
562.22	845.50
562.34	848.00
562.47	915.50
562.60	893.50
562.72	872.50
562.85	870.00
562.97	885.00
563.10	880.00
563.23	848.00
563.35	849.00
563.48	894.50
563.60	873.00
563.73	893.00
563.86	833.50
563.98	842.00
564.11	876.50
564.23	868.00
564.36	938.50
564.49	884.00
564.61	931.50
564.74	890.50
564.86	849.50
564.99	934.00
565.12	926.50
565.24	935.50
565.37	917.00
565.49	940.50
565.62	954.00
565.75	903.00
565.87	832.50
566.00	1020.00
566.12	939.50
566.25	894.00
566.38	917.50
566.50	884.00
566.63	945.50
566.75	870.50
566.88	857.50
567.01	837.00
567.13	868.00
567.26	869.50
567.38	862.50
567.51	932.50
567.64	861.50
567.76	893.50
567.89	889.50
568.01	855.00
568.14	844.50
568.26	883.50
568.39	874.50
568.52	879.50
568.64	916.00
568.77	864.50
568.89	853.00
569.02	864.00
569.15	885.50
569.27	871.00
569.40	889.00
569.52	916.50
569.65	872.50
569.77	869.50
569.90	829.00
570.03	828.50
570.15	956.00
570.28	885.50
570.40	863.00
570.53	864.50
570.66	953.50
570.78	917.50
570.91	878.00
571.03	839.50
571.16	888.00
571.28	836.50
571.41	823.50
571.54	832.50
571.66	829.50
571.79	850.50
571.91	846.50
572.04	835.00
572.16	903.50
572.29	914.00
572.42	858.00
572.54	888.50
572.67	847.00
572.79	887.00
572.92	875.00
573.04	913.00
573.17	928.50
573.29	886.50
573.42	870.00
573.55	907.50
573.67	910.50
573.80	881.50
573.92	847.50
574.05	896.50
574.17	944.50
574.30	862.50
574.43	861.00
574.55	870.00
574.68	879.50
574.80	860.00
574.93	854.50
575.05	831.50
575.18	872.00
575.30	875.00
575.43	904.50
575.56	939.50
575.68	904.00
575.81	844.50
575.93	828.00
576.06	909.00
576.18	923.50
576.31	874.00
576.43	859.00
576.56	977.50
576.69	940.00
576.81	891.00
576.94	859.50
577.06	881.00
577.19	920.00
577.31	887.50
577.44	878.00
577.56	932.50
577.69	893.00
577.82	903.50
577.94	849.50
578.07	828.00
578.19	911.50
578.32	911.50
578.44	851.00
578.57	877.00
578.69	922.00
578.82	874.00
578.94	916.00
579.07	935.50
579.19	928.50
579.32	896.00
579.45	893.50
579.57	882.00
579.70	841.50
579.82	899.00
579.95	866.50
580.07	943.50
580.20	873.00
580.32	880.00
580.45	907.50
580.57	927.00
580.70	897.50
580.82	912.00
580.95	916.00
581.08	835.00
581.20	945.50
581.33	876.00
581.45	883.00
581.58	894.00
581.70	913.00
581.83	806.00
581.95	901.00
582.08	913.00
582.20	876.50
582.33	875.00
582.45	862.50
582.58	869.00
582.70	903.50
582.83	851.00
582.95	883.00
583.08	940.50
583.21	934.50
583.33	886.00
583.46	860.50
583.58	835.50
583.71	924.00
583.83	897.50
583.96	902.50
584.08	931.50
584.21	929.50
584.33	919.50
584.46	880.00
584.58	851.00
584.71	927.50
584.83	915.00
584.96	898.00
585.08	870.00
585.21	988.50
585.33	952.00
585.46	906.50
585.58	935.50
585.71	864.00
585.83	889.00
585.96	931.00
586.08	921.00
586.21	915.50
586.33	924.50
586.46	841.50
586.59	914.50
586.71	858.00
586.84	908.50
586.96	890.00
587.09	831.00
587.21	879.50
587.34	911.50
587.46	857.00
587.59	850.00
587.71	889.00
587.84	864.50
587.96	824.50
588.09	830.50
588.21	910.00
588.34	872.50
588.46	882.50
588.59	859.50
588.71	921.00
588.84	894.50
588.96	881.50
589.09	988.50
589.21	895.50
589.34	866.00
589.46	879.50
589.59	913.00
589.71	945.50
589.84	847.00
589.96	871.50
590.09	901.00
590.21	927.50
590.34	906.50
590.46	903.00
590.59	879.00
590.71	881.50
590.84	932.50
590.96	852.00
591.09	917.50
591.21	908.50
591.34	867.50
591.46	872.50
591.59	956.50
591.71	920.50
591.83	885.50
591.96	834.00
592.08	876.50
592.21	912.00
592.33	885.50
592.46	877.50
592.58	907.00
592.71	947.50
592.83	980.50
592.96	919.50
593.08	950.00
593.21	842.50
593.33	835.00
593.46	861.00
593.58	882.00
593.71	924.00
593.83	934.50
593.96	864.50
594.08	1010.00
594.21	916.50
594.33	887.00
594.46	858.50
594.58	856.00
594.71	817.00
594.83	882.50
594.96	887.00
595.08	1068.00
595.20	924.50
595.33	904.50
595.45	848.50
595.58	981.00
595.70	913.50
595.83	867.00
595.95	874.00
596.08	907.00
596.20	852.00
596.33	838.50
596.45	894.00
596.58	853.50
596.70	851.50
596.83	888.00
596.95	874.00
597.08	892.50
597.20	856.00
597.32	864.50
597.45	896.50
597.57	886.00
597.70	934.00
597.82	879.00
597.95	881.50
598.07	895.00
598.20	902.00
598.32	894.50
598.45	880.00
598.57	943.50
598.70	960.00
598.82	878.00
598.94	872.00
599.07	954.00
599.19	906.50
599.32	865.00
599.44	803.50
599.57	944.50
599.69	907.50
599.82	884.00
599.94	846.50
600.07	955.00
600.19	928.50
600.31	873.50
600.44	916.00
600.56	1016.50
600.69	988.00
600.81	877.50
600.94	880.00
601.06	907.50
601.19	929.50
601.31	936.50
601.44	847.50
601.56	937.50
601.68	928.50
601.81	908.00
601.93	909.00
602.06	938.00
602.18	863.00
602.31	888.50
602.43	942.50
602.56	937.00
602.68	903.00
602.80	898.50
602.93	891.00
603.05	871.50
603.18	893.00
603.30	857.00
603.43	858.00
603.55	899.00
603.68	906.50
603.80	912.00
603.92	886.00
604.05	871.00
604.17	881.50
604.30	859.00
604.42	881.50
604.55	890.00
604.67	931.50
604.79	879.00
604.92	880.00
605.04	886.50
605.17	886.00
605.29	869.50
605.42	873.50
605.54	969.50
605.66	913.50
605.79	907.50
605.91	887.50
606.04	898.00
606.16	886.00
606.29	905.50
606.41	860.00
606.53	879.00
606.66	851.50
606.78	869.50
606.91	867.00
607.03	887.00
607.16	869.50
607.28	860.50
607.40	891.00
607.53	916.50
607.65	865.50
607.78	867.00
607.90	897.00
608.03	1000.50
608.15	914.50
608.27	907.50
608.40	838.50
608.52	899.00
608.65	882.50
608.77	925.50
608.89	890.00
609.02	981.50
609.14	997.50
609.27	915.00
609.39	935.50
609.52	876.00
609.64	829.00
609.76	867.50
609.89	870.00
610.01	961.00
610.14	922.00
610.26	892.50
610.38	874.50
610.51	944.50
610.63	889.00
610.76	858.50
610.88	918.00
611.01	970.50
611.13	991.50
611.25	933.00
611.38	865.50
611.50	899.50
611.63	930.50
611.75	911.50
611.87	914.00
612.00	875.00
612.12	947.00
612.25	898.00
612.37	869.00
612.49	969.00
612.62	942.50
612.74	959.00
612.87	899.50
612.99	902.50
613.11	829.00
613.24	876.00
613.36	883.00
613.49	918.50
613.61	906.50
613.73	880.00
613.86	927.00
613.98	874.00
614.11	946.00
614.23	931.00
614.35	946.00
614.48	945.50
614.60	907.00
614.72	900.50
614.85	914.00
614.97	899.50
615.10	915.50
615.22	878.00
615.34	900.00
615.47	937.50
615.59	874.50
615.72	906.00
615.84	910.50
615.96	878.00
616.09	995.50
616.21	879.00
616.34	869.50
616.46	890.50
616.58	920.00
616.71	913.50
616.83	930.00
616.95	933.50
617.08	922.50
617.20	907.00
617.33	856.00
617.45	889.50
617.57	942.00
617.70	910.00
617.82	876.00
617.95	908.50
618.07	978.50
618.19	909.50
618.32	904.50
618.44	887.00
618.56	871.00
618.69	841.00
618.81	846.50
618.94	946.50
619.06	898.00
619.18	877.50
619.31	854.50
619.43	865.00
619.55	917.00
619.68	921.00
619.80	856.50
619.92	920.50
620.05	1046.00
620.17	954.50
620.30	906.50
620.42	926.50
620.54	946.50
620.67	876.50
620.79	905.00
620.91	917.50
621.04	970.50
621.16	877.50
621.29	877.00
621.41	844.50
621.53	880.00
621.66	889.00
621.78	878.50
621.90	944.00
622.03	1026.00
622.15	908.00
622.27	887.00
622.40	904.50
622.52	874.50
622.64	875.50
622.77	847.00
622.89	911.00
623.02	925.50
623.14	908.50
623.26	916.50
623.39	935.50
623.51	947.00
623.63	882.50
623.76	869.50
623.88	963.00
624.00	910.50
624.13	856.50
624.25	862.50
624.37	863.50
624.50	952.50
624.62	918.00
624.75	872.00
624.87	868.50
624.99	891.50
625.12	872.00
625.24	884.50
625.36	985.50
625.49	941.50
625.61	909.50
625.73	913.50
625.86	939.50
625.98	907.00
626.10	873.50
626.23	849.00
626.35	916.00
626.47	887.00
626.60	864.00
626.72	866.50
626.84	882.50
626.97	928.00
627.09	893.00
627.21	889.00
627.34	1011.50
627.46	1002.50
627.58	899.00
627.71	904.50
627.83	949.00
627.95	871.00
628.08	891.50
628.20	937.50
628.32	853.50
628.45	832.00
628.57	839.00
628.69	855.00
628.82	921.50
628.94	947.50
629.06	888.50
629.19	871.50
629.31	937.00
629.43	858.00
629.56	904.00
629.68	908.50
629.80	967.50
629.93	856.50
630.05	868.00
630.17	861.50
630.30	894.50
630.42	873.50
630.54	917.50
630.67	899.50
630.79	887.00
630.91	1034.00
631.04	915.50
631.16	902.00
631.28	914.00
631.41	890.00
631.53	853.00
631.65	897.50
631.78	925.50
631.90	905.50
632.02	895.50
632.14	825.50
632.27	972.50
632.39	907.50
632.51	877.00
632.64	925.50
632.76	902.00
632.88	885.00
633.01	908.00
633.13	880.50
633.25	903.00
633.38	1009.50
633.50	847.00
633.62	832.00
633.75	845.00
633.87	822.50
633.99	910.00
634.11	847.50
634.24	886.00
634.36	888.00
634.48	884.50
634.61	891.50
634.73	919.00
634.85	870.50
634.98	867.00
635.10	877.50
635.22	903.50
635.35	1021.50
635.47	905.50
635.59	878.00
635.71	919.50
635.84	945.00
635.96	881.50
636.08	926.50
636.21	873.00
636.33	912.50
636.45	900.00
636.58	859.00
636.70	845.00
636.82	934.00
636.94	866.00
637.07	843.00
637.19	951.50
637.31	926.00
637.44	911.00
637.56	838.00
637.68	917.50
637.81	928.50
637.93	897.00
638.05	854.50
638.17	957.00
638.30	1027.50
638.42	885.00
638.54	846.50
638.67	884.50
638.79	902.50
638.91	866.00
639.03	885.50
639.16	875.50
639.28	906.50
639.40	894.50
639.53	871.50
639.65	937.00
639.77	885.00
639.89	894.50
640.02	876.50
640.14	905.00
640.26	865.00
640.39	931.50
640.51	873.00
640.63	927.00
640.75	959.00
640.88	907.50
641.00	880.00
641.12	868.50
641.24	988.00
641.37	891.00
641.49	851.00
641.61	1014.50
641.74	875.00
641.86	909.00
641.98	853.50
642.10	922.50
642.23	933.00
642.35	871.50
642.47	903.00
642.60	891.00
642.72	936.00
642.84	831.00
642.96	856.00
643.09	850.00
643.21	849.00
643.33	846.00
643.45	858.00
643.58	957.00
643.70	988.00
643.82	874.00
643.94	876.50
644.07	907.50
644.19	923.00
644.31	911.50
644.44	909.50
644.56	890.00
644.68	858.50
644.80	865.00
644.93	850.00
645.05	868.00
645.17	920.00
645.29	910.50
645.42	903.50
645.54	896.50
645.66	919.50
645.78	882.00
645.91	869.00
646.03	921.00
646.15	996.50
646.27	871.00
646.40	890.50
646.52	931.00
646.64	943.50
646.76	892.50
646.89	839.00
647.01	933.50
647.13	918.50
647.25	916.00
647.38	885.00
647.50	873.00
647.62	944.50
647.74	850.00
647.87	858.50
647.99	915.50
648.11	926.00
648.23	887.50
648.36	830.00
648.48	970.00
648.60	910.00
648.72	864.00
648.85	857.00
648.97	947.50
649.09	923.00
649.21	873.00
649.34	907.50
649.46	909.00
649.58	920.50
649.70	912.00
649.83	875.00
649.95	920.00
650.07	929.00
650.19	936.50
650.32	902.00
650.44	953.00
650.56	936.00
650.68	886.50
650.81	874.00
650.93	897.00
651.05	973.00
651.17	867.00
651.29	911.50
651.42	895.00
651.54	920.00
651.66	862.50
651.78	883.00
651.91	930.00
652.03	1022.00
652.15	925.50
652.27	865.50
652.40	904.50
652.52	902.50
652.64	909.50
652.76	876.00
652.88	996.50
653.01	905.50
653.13	846.50
653.25	820.50
653.37	933.00
653.50	958.00
653.62	911.00
653.74	839.50
653.86	950.50
653.98	938.00
654.11	858.50
654.23	878.50
654.35	878.00
654.47	1023.50
654.60	871.50
654.72	875.00
654.84	855.00
654.96	940.50
655.08	880.00
655.21	903.00
655.33	890.50
655.45	953.00
655.57	904.50
655.70	904.50
655.82	957.50
655.94	993.00
656.06	920.00
656.18	865.50
656.31	958.00
656.43	935.00
656.55	860.50
656.67	898.50
656.79	911.00
656.92	968.00
657.04	916.50
657.16	887.50
657.28	1024.50
657.40	930.00
657.53	923.00
657.65	895.00
657.77	974.50
657.89	961.00
658.01	881.00
658.14	858.50
658.26	928.50
658.38	895.50
658.50	862.00
658.62	867.50
658.75	1031.50
658.87	957.50
658.99	930.00
659.11	867.50
659.23	960.00
659.36	1019.00
659.48	954.00
659.60	917.50
659.72	915.50
659.84	913.00
659.97	931.50
660.09	939.50
660.21	1026.00
660.33	960.00
660.45	849.00
660.58	819.00
660.70	868.00
660.82	908.00
660.94	857.00
661.06	907.50
661.19	973.50
661.31	937.00
661.43	891.50
661.55	898.00
661.67	947.00
661.80	993.50
661.92	905.00
662.04	909.00
662.16	918.00
662.28	981.00
662.40	899.00
662.53	911.00
662.65	933.00
662.77	880.00
662.89	903.50
663.01	877.00
663.14	901.50
663.26	935.50
663.38	904.00
663.50	864.50
663.62	889.00
663.74	923.50
663.87	884.00
663.99	911.50
664.11	959.50
664.23	1043.00
664.35	885.50
664.48	881.50
664.60	909.00
664.72	889.50
664.84	861.50
664.96	881.50
665.08	969.50
665.21	921.00
665.33	941.50
665.45	843.50
665.57	915.00
665.69	998.00
665.81	906.50
665.94	857.00
666.06	872.50
666.18	926.50
666.30	889.50
666.42	870.00
666.54	916.50
666.67	947.50
666.79	884.00
666.91	936.00
667.03	907.00
667.15	866.50
667.27	883.00
667.40	869.00
667.52	905.50
667.64	956.50
667.76	889.50
667.88	864.50
668.00	942.50
668.13	946.00
668.25	870.00
668.37	872.50
668.49	896.50
668.61	955.00
668.73	899.00
668.85	909.50
668.98	932.00
669.10	925.00
669.22	884.00
669.34	896.00
669.46	951.00
669.58	900.00
669.71	900.00
669.83	895.50
669.95	901.50
670.07	922.50
670.19	882.50
670.31	894.50
670.43	887.00
670.56	919.00
670.68	956.50
670.80	932.50
670.92	924.50
671.04	977.50
671.16	890.50
671.28	878.50
671.41	893.00
671.53	952.50
671.65	894.00
671.77	892.00
671.89	1061.50
672.01	1016.00
672.13	939.00
672.26	873.00
672.38	921.50
672.50	878.00
672.62	900.00
672.74	915.50
672.86	914.50
672.98	931.50
673.11	915.00
673.23	924.50
673.35	976.50
673.47	910.00
673.59	889.00
673.71	861.00
673.83	926.00
673.96	1041.00
674.08	907.50
674.20	869.50
674.32	907.50
674.44	909.00
674.56	928.00
674.68	917.00
674.80	945.50
674.93	917.00
675.05	889.50
675.17	914.00
675.29	953.50
675.41	957.00
675.53	911.00
675.65	891.50
675.77	894.50
675.90	971.00
676.02	872.00
676.14	874.50
676.26	993.00
676.38	1028.00
676.50	923.00
676.62	939.50
676.74	876.00
676.87	903.00
676.99	916.00
677.11	965.00
677.23	943.00
677.35	952.00
677.47	868.50
677.59	885.50
677.71	942.50
677.83	959.50
677.96	903.50
678.08	917.50
678.20	921.50
678.32	892.50
678.44	921.50
678.56	894.50
678.68	1062.00
678.80	966.50
678.93	906.00
679.05	910.50
679.17	920.00
679.29	976.00
679.41	902.50
679.53	877.00
679.65	885.50
679.77	926.00
679.89	903.00
680.01	940.00
680.14	951.00
680.26	857.00
680.38	902.50
680.50	948.50
680.62	999.00
680.74	943.50
680.86	917.50
680.98	915.00
681.10	951.50
681.22	1021.50
681.35	909.50
681.47	900.00
681.59	884.00
681.71	1008.50
681.83	914.00
681.95	873.50
682.07	995.00
682.19	933.50
682.31	900.50
682.43	880.00
682.56	949.50
682.68	872.00
682.80	872.50
682.92	932.50
683.04	937.00
683.16	914.00
683.28	881.00
683.40	947.50
683.52	914.50
683.64	941.00
683.76	872.50
683.89	891.50
684.01	918.00
684.13	990.00
684.25	918.00
684.37	917.50
684.49	966.00
684.61	909.00
684.73	914.00
684.85	907.50
684.97	889.50
685.09	978.00
685.21	894.50
685.34	908.00
685.46	1063.50
685.58	950.00
685.70	929.00
685.82	951.50
685.94	897.50
686.06	892.50
686.18	876.50
686.30	899.00
686.42	873.00
686.54	956.50
686.66	883.50
686.79	988.50
686.91	933.00
687.03	1047.00
687.15	947.00
687.27	909.50
687.39	915.00
687.51	1011.50
687.63	942.00
687.75	964.00
687.87	951.50
687.99	1009.50
688.11	886.00
688.23	935.00
688.35	976.50
688.48	972.50
688.60	886.00
688.72	903.00
688.84	965.50
688.96	962.00
689.08	924.00
689.20	926.00
689.32	1050.50
689.44	951.00
689.56	873.50
689.68	904.50
689.80	917.00
689.92	890.50
690.04	897.00
690.16	943.00
690.28	945.00
690.41	948.50
690.53	893.00
690.65	950.00
690.77	984.50
690.89	975.50
691.01	925.00
691.13	897.50
691.25	887.00
691.37	923.00
691.49	881.00
691.61	863.50
691.73	1020.50
691.85	932.50
691.97	904.00
692.09	883.00
692.21	978.50
692.33	991.50
692.45	944.50
692.57	894.50
692.70	936.00
692.82	954.50
692.94	871.00
693.06	894.50
693.18	928.50
693.30	914.00
693.42	891.50
693.54	935.50
693.66	955.00
693.78	949.50
693.90	903.00
694.02	916.00
694.14	952.00
694.26	908.00
694.38	929.50
694.50	935.00
694.62	947.00
694.74	896.00
694.86	886.50
694.98	924.50
695.10	953.00
695.22	984.00
695.34	891.50
695.46	887.00
695.58	912.00
695.71	949.50
695.83	906.50
695.95	906.50
696.07	975.50
696.19	892.00
696.31	902.50
696.43	871.50
696.55	1013.50
696.67	935.00
696.79	884.50
696.91	914.50
697.03	893.50
697.15	1015.50
697.27	933.00
697.39	889.50
697.51	965.00
697.63	908.00
697.75	894.00
697.87	934.00
697.99	879.00
698.11	851.50
698.23	884.00
698.35	901.00
698.47	908.00
698.59	947.00
698.71	908.00
698.83	971.50
698.95	901.00
699.07	934.00
699.19	905.50
699.31	917.00
699.43	891.50
699.55	970.50
699.67	896.50
699.79	908.00
699.91	905.00
700.03	933.00
700.15	924.50
700.27	890.00
700.39	917.50
700.51	886.00
700.63	910.00
700.75	900.00
700.87	941.00
700.99	912.00
701.11	950.00
701.24	927.00
701.36	960.00
701.48	975.00
701.60	953.00
701.72	890.00
701.84	1029.50
701.96	947.50
702.08	924.00
702.20	1009.50
702.32	975.00
702.44	949.50
702.56	915.00
702.68	908.00
702.80	935.50
702.92	1022.00
703.04	994.00
703.16	934.00
703.28	942.00
703.40	913.50
703.52	933.00
703.64	946.00
703.76	950.00
703.88	930.50
704.00	905.50
704.12	934.50
704.24	980.00
704.36	931.00
704.48	931.00
704.60	888.50
704.72	915.50
704.84	927.50
704.96	958.00
705.07	937.50
705.19	890.00
705.31	911.00
705.43	966.00
705.55	915.00
705.67	965.00
705.79	937.50
705.91	860.50
706.03	919.00
706.15	932.50
706.27	923.50
706.39	924.00
706.51	895.00
706.63	913.50
706.75	965.00
706.87	942.50
706.99	990.50
707.11	944.50
707.23	909.50
707.35	945.00
707.47	927.00
707.59	975.50
707.71	974.00
707.83	917.00
707.95	956.00
708.07	923.00
708.19	1064.00
708.31	938.00
708.43	896.00
708.55	951.00
708.67	996.00
708.79	944.50
708.91	972.00
709.03	948.00
709.15	989.50
709.27	894.00
709.39	926.00
709.51	920.00
709.63	968.00
709.75	954.00
709.87	876.50
709.99	969.50
710.11	917.50
710.23	910.50
710.35	892.00
710.47	1041.00
710.58	1003.50
710.70	985.50
710.82	972.00
710.94	953.50
711.06	920.50
711.18	934.00
711.30	916.50
711.42	971.00
711.54	926.50
711.66	963.00
711.78	908.50
711.90	970.50
712.02	998.00
712.14	911.00
712.26	879.50
712.38	979.50
712.50	1014.50
712.62	913.00
712.74	899.00
712.86	913.50
712.98	985.50
713.10	930.50
713.22	899.00
713.34	943.50
713.45	910.50
713.57	942.50
713.69	890.00
713.81	914.50
713.93	954.00
714.05	921.50
714.17	867.50
714.29	1003.00
714.41	988.00
714.53	919.00
714.65	949.50
714.77	945.00
714.89	900.50
715.01	987.00
715.13	903.00
715.25	950.00
715.37	909.50
715.49	881.50
715.61	953.00
715.72	965.00
715.84	999.50
715.96	933.00
716.08	923.00
716.20	1015.00
716.32	996.50
716.44	940.00
716.56	926.00
716.68	951.50
716.80	1054.00
716.92	997.50
717.04	954.00
717.16	959.00
717.28	932.00
717.40	910.50
717.52	934.00
717.63	903.00
717.75	956.00
717.87	943.00
717.99	944.50
718.11	933.50
718.23	1013.00
718.35	957.00
718.47	950.50
718.59	910.50
718.71	936.50
718.83	926.50
718.95	967.00
719.07	898.00
719.19	926.00
719.30	918.50
719.42	946.00
719.54	945.00
719.66	958.00
719.78	939.00
719.90	870.50
720.02	933.00
720.14	955.50
720.26	979.00
720.38	962.00
720.50	917.50
720.62	868.00
720.74	933.50
720.85	933.00
720.97	1007.50
721.09	1043.50
721.21	935.00
721.33	1001.50
721.45	940.00
721.57	959.50
721.69	919.50
721.81	890.50
721.93	1017.00
722.05	949.00
722.16	899.00
722.28	875.00
722.40	923.50
722.52	997.50
722.64	1003.00
722.76	898.00
722.88	961.00
723.00	973.50
723.12	917.00
723.24	944.00
723.36	879.00
723.47	998.50
723.59	957.00
723.71	925.50
723.83	955.50
723.95	934.00
724.07	944.00
724.19	957.00
724.31	1013.50
724.43	915.50
724.55	857.00
724.66	905.00
724.78	1101.00
724.90	915.00
725.02	912.50
725.14	913.00
725.26	946.50
725.38	870.50
725.50	920.50
725.62	945.50
725.74	933.00
725.85	941.50
725.97	943.00
726.09	996.50
726.21	1268.00
726.33	969.50
726.45	927.00
726.57	910.50
726.69	948.50
726.81	952.50
726.92	939.50
727.04	959.50
727.16	969.50
727.28	928.00
727.40	927.00
727.52	941.50
727.64	1077.50
727.76	1047.50
727.88	964.50
727.99	899.50
728.11	911.00
728.23	934.50
728.35	915.50
728.47	907.00
728.59	912.50
728.71	966.00
728.83	943.00
728.94	967.50
729.06	1031.00
729.18	1015.50
729.30	957.00
729.42	950.00
729.54	1020.50
729.66	1053.50
729.78	941.50
729.90	940.50
730.01	931.00
730.13	871.50
730.25	927.50
730.37	924.00
730.49	960.00
730.61	975.50
730.73	959.00
730.84	985.00
730.96	992.50
731.08	965.50
731.20	956.00
731.32	941.50
731.44	1120.50
731.56	952.50
731.68	905.00
731.79	970.00
731.91	925.50
732.03	929.00
732.15	938.50
732.27	910.50
732.39	927.50
732.51	987.50
732.62	922.50
732.74	935.50
732.86	994.50
732.98	978.50
733.10	947.50
733.22	957.50
733.34	972.50
733.45	882.50
733.57	937.50
733.69	903.50
733.81	918.50
733.93	954.00
734.05	866.00
734.17	935.50
734.28	946.00
734.40	954.50
734.52	925.50
734.64	940.50
734.76	1036.50
734.88	973.00
735.00	918.00
735.11	940.50
735.23	996.50
735.35	945.00
735.47	899.00
735.59	978.50
735.71	944.00
735.83	954.50
735.94	973.00
736.06	951.00
736.18	1014.00
736.30	991.00
736.42	970.50
736.54	969.00
736.65	986.50
736.77	1109.50
736.89	1002.50
737.01	944.00
737.13	1069.50
737.25	887.50
737.36	908.50
737.48	938.50
737.60	962.50
737.72	949.50
737.84	931.00
737.96	982.50
738.08	949.50
738.19	1043.00
738.31	941.50
738.43	953.00
738.55	960.00
738.67	959.50
738.79	923.50
738.90	942.00
739.02	979.00
739.14	927.50
739.26	935.00
739.38	941.50
739.50	985.50
739.61	951.50
739.73	943.00
739.85	946.50
739.97	977.00
740.09	1015.50
740.20	904.00
740.32	951.00
740.44	975.00
740.56	916.50
740.68	936.50
740.80	944.50
740.91	945.50
741.03	1000.00
741.15	982.50
741.27	935.00
741.39	1001.50
741.51	970.50
741.62	998.00
741.74	947.50
741.86	941.00
741.98	924.50
742.10	967.00
742.21	969.50
742.33	963.00
742.45	927.50
742.57	998.50
742.69	936.00
742.80	992.00
742.92	949.00
743.04	946.00
743.16	929.50
743.28	1007.00
743.40	912.00
743.51	918.00
743.63	911.50
743.75	964.00
743.87	964.50
743.99	976.50
744.10	950.50
744.22	952.50
744.34	927.00
744.46	977.50
744.58	956.00
744.69	883.50
744.81	959.50
744.93	903.00
745.05	912.00
745.17	1037.50
745.28	1036.00
745.40	969.00
745.52	957.50
745.64	969.00
745.76	995.00
745.87	949.50
745.99	925.50
746.11	979.50
746.23	928.00
746.35	944.50
746.46	934.00
746.58	1064.00
746.70	964.00
746.82	964.00
746.94	945.50
747.05	928.00
747.17	903.00
747.29	878.00
747.41	931.50
747.53	1088.00
747.64	950.50
747.76	996.50
747.88	1012.00
748.00	1006.50
748.12	953.50
748.23	952.50
748.35	973.50
748.47	1003.50
748.59	1000.00
748.70	930.50
748.82	916.50
748.94	918.00
749.06	940.50
749.18	948.00
749.29	914.50
749.41	970.00
749.53	977.00
749.65	931.50
749.76	968.50
749.88	941.50
750.00	975.00
750.12	992.00
750.24	982.50
750.35	962.00
750.47	920.50
750.59	973.50
750.71	943.50
750.82	1000.00
750.94	920.00
751.06	929.50
751.18	926.50
751.30	986.50
751.41	1003.00
751.53	979.50
751.65	926.50
751.77	938.50
751.88	963.00
752.00	988.00
752.12	905.00
752.24	1001.50
752.35	978.50
752.47	991.00
752.59	990.00
752.71	1039.50
752.83	940.00
752.94	1018.00
753.06	931.50
753.18	962.00
753.30	936.00
753.41	891.00
753.53	925.00
753.65	931.50
753.77	1005.00
753.88	926.00
754.00	975.50
754.12	963.00
754.24	1029.50
754.35	932.00
754.47	885.50
754.59	978.00
754.71	979.00
754.82	964.00
754.94	950.50
755.06	1009.00
755.18	979.00
755.29	981.00
755.41	925.50
755.53	965.00
755.65	934.00
755.76	971.50
755.88	959.00
756.00	1040.00
756.12	942.00
756.23	846.50
756.35	920.50
756.47	1002.00
756.59	941.00
756.70	935.50
756.82	941.00
756.94	935.00
757.06	973.50
757.17	956.50
757.29	944.50
757.41	909.00
757.53	983.50
757.64	956.00
757.76	942.00
757.88	972.50
758.00	987.50
758.11	929.50
758.23	918.50
758.35	983.50
758.47	927.00
758.58	970.00
758.70	902.50
758.82	928.00
758.94	906.50
759.05	954.00
759.17	897.00
759.29	941.50
759.40	1028.50
759.52	941.50
759.64	938.00
759.76	968.50
759.87	981.50
759.99	975.50
760.11	934.50
760.23	961.50
760.34	994.00
760.46	968.00
760.58	942.00
760.70	957.00
760.81	1024.00
760.93	956.50
761.05	982.50
761.16	979.50
761.28	934.00
761.40	927.00
761.52	907.50
761.63	1003.50
761.75	955.50
761.87	934.50
761.98	896.50
762.10	994.50
762.22	939.50
762.34	984.50
762.45	933.50
762.57	997.00
762.69	1082.50
762.81	939.00
762.92	980.00
763.04	887.00
763.16	970.50
763.27	982.50
763.39	928.00
763.51	977.50
763.63	982.00
763.74	924.50
763.86	899.50
763.98	917.50
764.09	939.00
764.21	954.00
764.33	898.00
764.44	912.50
764.56	964.50
764.68	920.00
764.80	945.00
764.91	895.50
765.03	1026.00
765.15	943.50
765.26	954.50
765.38	916.00
765.50	980.00
765.62	960.50
765.73	952.50
765.85	967.50
765.97	899.00
766.08	942.50
766.20	958.50
766.32	967.00
766.43	1004.50
766.55	970.50
766.67	935.00
766.79	953.50
766.90	922.50
767.02	887.00
767.14	897.50
767.25	909.50
767.37	1050.50
767.49	970.00
767.60	930.50
767.72	1006.50
767.84	983.50
767.95	931.00
768.07	902.00
768.19	967.50
768.31	977.50
768.42	953.00
768.54	922.50
768.66	951.00
768.77	979.00
768.89	944.00
769.01	918.00
769.12	961.50
769.24	947.00
769.36	916.50
769.47	904.00
769.59	907.50
769.71	977.50
769.82	944.00
769.94	942.50
770.06	903.00
770.17	993.50
770.29	956.50
770.41	970.00
770.53	981.50
770.64	903.50
770.76	945.00
770.88	968.00
770.99	973.50
771.11	913.50
771.23	953.50
771.34	954.50
771.46	1048.50
771.58	1019.50
771.69	977.50
771.81	946.50
771.93	989.00
772.04	938.00
772.16	977.00
772.28	945.00
772.39	1007.00
772.51	948.00
772.63	974.50
772.74	946.50
772.86	949.00
772.98	1080.50
773.09	926.50
773.21	933.00
773.33	971.50
773.44	965.50
773.56	946.00
773.68	944.50
773.79	1004.00
773.91	953.00
774.03	946.50
774.14	936.00
774.26	1012.50
774.38	915.50
774.49	909.00
774.61	936.00
774.73	948.50
774.84	932.50
774.96	920.50
775.08	937.00
775.19	974.00
775.31	1010.50
775.43	952.50
775.54	923.50
775.66	903.00
775.77	994.00
775.89	908.50
776.01	979.00
776.12	1001.00
776.24	973.50
776.36	902.50
776.47	911.50
776.59	968.00
776.71	999.50
776.82	877.00
776.94	901.50
777.06	918.00
777.17	1021.00
777.29	904.50
777.41	918.50
777.52	963.00
777.64	942.50
777.75	963.50
777.87	898.00
777.99	921.00
778.10	1003.00
778.22	928.00
778.34	955.00
778.45	933.50
778.57	996.00
778.69	974.00
778.80	960.50
778.92	1051.50
779.04	970.00
779.15	931.50
779.27	965.00
779.38	981.50
779.50	1008.00
779.62	898.50
779.73	930.00
779.85	883.00
779.97	1061.50
780.08	946.00
780.20	935.50
780.31	992.00
780.43	992.50
780.55	925.50
780.66	951.50
780.78	961.50
780.90	1052.50
781.01	922.50
781.13	946.00
781.25	932.00
781.36	990.50
781.48	923.50
781.59	930.00
781.71	987.00
781.83	969.00
781.94	914.00
782.06	919.00
782.18	978.00
782.29	921.50
782.41	896.50
782.52	964.00
782.64	991.00
782.76	956.50
782.87	952.00
782.99	919.00
783.10	1071.00
783.22	1093.50
783.34	953.50
783.45	951.50
783.57	939.50
783.69	927.50
783.80	953.00
783.92	973.00
784.03	958.00
784.15	910.50
784.27	940.50
784.38	926.00
784.50	911.00
784.61	947.50
784.73	916.50
784.85	917.50
784.96	918.00
785.08	1000.50
785.19	986.50
785.31	918.50
785.43	897.50
785.54	902.00
785.66	945.50
785.77	938.00
785.89	964.50
786.01	893.50
786.12	928.00
786.24	927.00
786.35	1026.50
786.47	949.50
786.59	921.00
786.70	883.00
786.82	949.00
786.93	959.00
787.05	928.00
787.17	937.50
787.28	922.00
787.40	955.50
787.51	958.00
787.63	949.50
787.75	896.00
787.86	945.50
787.98	959.00
788.09	937.00
788.21	960.00
788.33	962.50
788.44	967.50
788.56	913.00
788.67	972.50
788.79	930.00
788.91	952.50
789.02	919.50
789.14	923.50
789.25	1038.50
789.37	960.00
789.48	905.50
789.60	963.00
789.72	908.50
789.83	951.00
789.95	946.00
790.06	886.50
790.18	900.50
790.30	968.50
790.41	945.50
790.53	897.50
790.64	890.50
790.76	901.00
790.87	934.00
790.99	957.00
791.11	954.00
791.22	917.50
791.34	932.00
791.45	969.50
791.57	967.50
791.68	927.00
791.80	916.00
791.92	966.00
792.03	913.00
792.15	889.00
792.26	896.50
792.38	883.50
792.49	957.00
792.61	940.50
792.73	952.00
792.84	941.50
792.96	1042.50
793.07	927.00
793.19	1794.50
793.30	1027.50
793.42	972.50
793.54	854.50
793.65	880.00
793.77	1081.00
793.88	914.50
794.00	881.50
794.11	928.50
794.23	870.50
794.34	954.50
794.46	879.50
794.58	881.50
794.69	1028.50
794.81	1026.50
794.92	897.50
795.04	899.50
795.15	1012.00
795.27	980.00
795.39	938.50
795.50	901.00
795.62	897.00
795.73	925.00
795.85	898.50
795.96	941.50
796.08	986.50
796.19	919.00
796.31	918.50
796.42	889.50
796.54	904.50
796.66	978.00
796.77	878.00
796.89	860.00
797.00	979.00
797.12	849.00
797.23	898.50
797.35	937.00
797.46	958.00
797.58	981.00
797.69	942.00
797.81	910.00
797.93	929.00
798.04	895.00
798.16	907.50
798.27	919.50
798.39	886.00
798.50	881.00
798.62	874.00
798.73	884.50
798.85	1008.50
798.96	934.50
799.08	954.50
799.19	962.00
799.31	936.00
799.43	916.50
799.54	902.00
799.66	922.50
799.77	934.50
799.89	888.50
800.00	864.50
800.12	900.50
800.23	981.00
800.35	1003.00
800.46	860.00
800.58	849.50
800.69	918.00
800.81	913.00
800.92	872.00
801.04	925.50
801.16	864.00
801.27	867.00
801.39	876.00
801.50	898.50
801.62	920.00
801.73	967.50
801.85	959.00
801.96	874.00
802.08	986.00
802.19	981.00
802.31	901.50
802.42	917.00
802.54	1006.00
802.65	971.50
802.77	883.50
802.88	933.00
803.00	871.50
803.11	1041.00
803.23	917.00
803.34	914.00
803.46	952.00
803.57	876.00
803.69	948.00
803.80	875.00
803.92	983.00
804.03	921.00
804.15	919.00
804.26	934.00
804.38	952.00
804.50	890.00
804.61	930.00
804.73	913.00
804.84	923.00
804.96	853.00
805.07	910.00
805.19	878.00
805.30	938.50
805.42	965.00
805.53	908.50
805.65	899.00
805.76	869.00
805.88	909.50
805.99	918.50
806.11	941.00
806.22	889.50
806.34	903.50
806.45	907.00
806.57	894.50
806.68	947.00
806.80	839.00
806.91	876.00
807.03	866.00
807.14	845.50
807.26	865.50
807.37	851.50
807.49	914.50
807.60	881.00
807.72	978.50
807.83	982.50
807.95	933.00
808.06	934.00
808.17	929.50
808.29	953.00
808.40	866.00
808.52	919.50
808.63	921.50
808.75	907.50
808.86	892.00
808.98	923.00
809.09	886.00
809.21	912.50
809.32	869.50
809.44	929.50
809.55	862.00
809.67	901.50
809.78	881.50
809.90	941.00
810.01	956.50
810.13	873.50
810.24	911.50
810.36	835.00
810.47	922.50
810.59	902.50
810.70	906.00
810.82	949.00
810.93	859.00
811.05	864.00
811.16	871.50
811.27	877.00
811.39	912.50
811.50	928.50
811.62	845.00
811.73	825.50
811.85	911.00
811.96	882.50
812.08	916.50
812.19	900.00
812.31	932.00
812.42	875.50
812.54	861.50
812.65	942.00
812.77	925.00
812.88	920.50
813.00	925.00
813.11	911.50
813.22	844.50
813.34	857.00
813.45	888.00
813.57	975.00
813.68	982.00
813.80	901.00
813.91	844.00
814.03	874.50
814.14	981.50
814.26	863.00
814.37	887.50
814.49	885.50
814.60	869.00
814.71	858.00
814.83	872.00
814.94	845.50
815.06	871.00
815.17	881.50
815.29	869.00
815.40	844.50
815.52	970.50
815.63	868.50
815.75	856.50
815.86	900.50
815.97	831.00
816.09	868.00
816.20	900.00
816.32	908.00
816.43	834.00
816.55	893.50
816.66	856.00
816.78	972.00
816.89	872.00
817.00	868.00
817.12	844.00
817.23	851.00
817.35	920.00
817.46	886.50
817.58	842.50
817.69	973.50
817.81	863.00
817.92	921.50
818.03	873.00
818.15	876.00
818.26	856.50
818.38	829.50
818.49	858.50
818.61	885.00
818.72	831.00
818.83	1933.00
818.95	1016.00
819.06	851.50
819.18	858.50
819.29	881.50
819.41	858.00
819.52	890.50
819.64	874.50
819.75	851.50
819.86	813.50
819.98	864.00
820.09	889.00
820.21	864.00
820.32	821.50
820.44	882.00
820.55	941.50
820.66	844.00
820.78	900.50
820.89	871.00
821.01	894.50
821.12	873.00
821.23	879.50
821.35	853.50
821.46	926.50
821.58	865.00
821.69	843.00
821.81	829.00
821.92	919.50
822.03	854.00
822.15	875.50
822.26	822.00
822.38	831.50
822.49	870.50
822.61	868.00
822.72	874.00
822.83	918.00
822.95	852.50
823.06	866.00
823.18	912.50
823.29	933.50
823.40	882.00
823.52	853.00
823.63	807.50
823.75	952.00
823.86	856.00
823.97	797.50
824.09	885.00
824.20	832.50
824.32	865.50
824.43	840.50
824.55	902.00
824.66	958.00
824.77	853.50
824.89	875.50
825.00	926.50
825.12	877.00
825.23	893.00
825.34	802.50
825.46	824.00
825.57	889.50
825.69	825.00
825.80	785.50
825.91	833.00
826.03	813.00
826.14	872.50
826.26	812.50
826.37	857.00
826.48	833.50
826.60	854.50
826.71	821.00
826.83	867.00
826.94	864.00
827.05	889.50
827.17	879.00
827.28	851.50
827.39	827.00
827.51	801.50
827.62	835.00
827.74	850.50
827.85	835.00
827.96	822.50
828.08	838.50
828.19	954.00
828.31	845.50
828.42	788.00
828.53	855.50
828.65	897.00
828.76	902.00
828.87	855.00
828.99	807.00
