Wavelength (nm)	Intensity
377.35	821.75
377.48	610.75
377.62	622.25
377.75	625.75
377.88	850.25
378.02	831.25
378.15	827.50
378.28	795.00
378.41	880.00
378.55	846.00
378.68	824.75
378.81	805.25
378.95	838.00
379.08	828.75
379.21	789.50
379.35	852.50
379.48	866.50
379.61	927.00
379.74	833.00
379.88	811.00
380.01	895.25
380.14	964.50
380.28	863.00
380.41	786.50
380.54	845.00
380.68	873.00
380.81	773.50
380.94	858.50
381.07	910.50
381.21	911.00
381.34	831.50
381.47	775.75
381.61	987.25
381.74	852.00
381.87	794.75
382.00	856.50
382.14	922.00
382.27	881.25
382.40	814.50
382.54	902.25
382.67	909.00
382.80	809.50
382.93	802.75
383.07	826.25
383.20	832.00
383.33	877.50
383.47	799.75
383.60	787.00
383.73	991.50
383.86	867.25
384.00	824.50
384.13	822.00
384.26	878.00
384.40	892.00
384.53	833.25
384.66	884.50
384.79	865.00
384.93	828.00
385.06	826.50
385.19	847.50
385.33	953.50
385.46	860.50
385.59	803.50
385.72	849.75
385.86	781.75
385.99	823.25
386.12	817.75
386.25	796.75
386.39	886.75
386.52	897.75
386.65	831.75
386.79	815.25
386.92	821.25
387.05	925.00
387.18	787.75
387.32	804.25
387.45	879.25
387.58	855.75
387.71	817.50
387.85	808.75
387.98	854.50
388.11	879.00
388.25	844.50
388.38	835.50
388.51	878.50
388.64	890.75
388.78	811.50
388.91	780.25
389.04	831.25
389.17	951.00
389.31	844.75
389.44	859.25
389.57	913.00
389.70	872.00
389.84	816.25
389.97	806.75
390.10	815.25
390.24	870.00
390.37	822.50
390.50	820.50
390.63	912.75
390.77	837.25
390.90	840.25
391.03	837.00
391.16	790.00
391.30	823.50
391.43	812.50
391.56	814.50
391.69	806.75
391.83	898.75
391.96	847.00
392.09	819.50
392.22	938.00
392.36	862.50
392.49	792.75
392.62	827.50
392.75	867.25
392.89	911.00
393.02	808.75
393.15	797.50
393.28	781.00
393.42	934.25
393.55	791.25
393.68	808.25
393.81	764.00
393.95	824.50
394.08	813.00
394.21	817.75
394.34	883.00
394.48	864.50
394.61	864.00
394.74	845.75
394.87	886.50
395.01	867.50
395.14	860.00
395.27	812.00
395.40	946.75
395.54	942.00
395.67	831.50
395.80	819.00
395.93	874.50
396.07	814.75
396.20	800.25
396.33	768.50
396.46	822.00
396.59	825.75
396.73	830.50
396.86	792.50
396.99	888.00
397.12	856.25
397.26	850.50
397.39	826.50
397.52	1160.75
397.65	959.50
397.79	833.00
397.92	821.75
398.05	886.25
398.18	821.50
398.32	838.25
398.45	863.50
398.58	866.75
398.71	867.25
398.84	790.75
398.98	823.00
399.11	869.00
399.24	867.25
399.37	827.75
399.51	801.25
399.64	839.50
399.77	843.25
399.90	835.25
400.03	834.25
400.17	800.25
400.30	907.25
400.43	864.25
400.56	840.75
400.70	847.75
400.83	822.75
400.96	802.00
401.09	835.75
401.23	846.25
401.36	908.25
401.49	805.25
401.62	827.25
401.75	826.00
401.89	805.25
402.02	821.25
402.15	831.50
402.28	867.50
402.41	854.75
402.55	812.00
402.68	823.50
402.81	919.50
402.94	879.50
403.08	802.75
403.21	786.75
403.34	877.25
403.47	885.50
403.60	823.00
403.74	851.25
403.87	880.75
404.00	822.75
404.13	820.50
404.26	784.50
404.40	799.00
404.53	859.50
404.66	819.25
404.79	787.25
404.93	886.75
405.06	851.50
405.19	786.00
405.32	841.00
405.45	856.25
405.59	892.00
405.72	836.75
405.85	793.75
405.98	1016.75
406.11	814.25
406.25	801.25
406.38	822.25
406.51	873.50
406.64	842.00
406.77	791.00
406.91	788.50
407.04	862.00
407.17	828.25
407.30	844.00
407.43	824.25
407.57	913.25
407.70	900.75
407.83	803.00
407.96	837.50
408.09	801.50
408.23	933.00
408.36	827.25
408.49	817.50
408.62	962.00
408.75	864.50
408.89	811.75
409.02	853.50
409.15	847.50
409.28	933.00
409.41	859.75
409.55	810.25
409.68	970.50
409.81	861.50
409.94	810.25
410.07	838.75
410.20	850.50
410.34	838.25
410.47	837.25
410.60	842.25
410.73	870.00
410.86	813.75
411.00	828.00
411.13	802.75
411.26	851.00
411.39	854.25
411.52	850.00
411.66	828.25
411.79	830.50
411.92	806.00
412.05	826.25
412.18	814.50
412.31	868.00
412.45	884.00
412.58	879.25
412.71	791.00
412.84	859.50
412.97	930.25
413.11	834.75
413.24	852.00
413.37	888.50
413.50	956.75
413.63	850.50
413.76	821.25
413.90	886.75
414.03	836.25
414.16	825.00
414.29	855.00
414.42	845.00
414.56	954.25
414.69	824.00
414.82	833.00
414.95	845.75
415.08	870.25
415.21	823.50
415.35	838.00
415.48	767.00
415.61	889.50
415.74	889.25
415.87	789.75
416.00	855.75
416.14	973.25
416.27	849.75
416.40	803.50
416.53	832.25
416.66	867.25
416.79	845.50
416.93	803.50
417.06	905.25
417.19	861.75
417.32	833.00
417.45	815.75
417.58	800.50
417.72	894.25
417.85	809.50
417.98	838.00
418.11	886.00
418.24	818.25
418.37	818.75
418.51	836.75
418.64	854.50
418.77	925.00
418.90	853.50
419.03	792.00
419.16	866.25
419.29	885.00
419.43	818.50
419.56	799.75
419.69	961.00
419.82	906.75
419.95	825.75
420.08	870.25
420.22	921.50
420.35	989.50
420.48	884.50
420.61	823.50
420.74	781.25
420.87	882.00
421.00	803.50
421.14	817.25
421.27	888.00
421.40	928.25
421.53	844.50
421.66	829.75
421.79	841.00
421.93	839.75
422.06	827.25
422.19	809.50
422.32	894.00
422.45	894.25
422.58	845.50
422.71	819.25
422.85	887.50
422.98	896.00
423.11	794.75
423.24	771.75
423.37	803.50
423.50	813.75
423.63	828.00
423.77	801.25
423.90	810.00
424.03	867.50
424.16	856.25
424.29	821.75
424.42	796.75
424.55	810.75
424.69	803.00
424.82	831.00
424.95	860.00
425.08	811.50
425.21	847.75
425.34	819.00
425.47	843.50
425.60	863.25
425.74	785.25
425.87	824.00
426.00	835.75
426.13	846.25
426.26	806.75
426.39	798.50
426.52	834.25
426.66	911.75
426.79	864.25
426.92	806.50
427.05	945.50
427.18	901.75
427.31	826.25
427.44	823.75
427.57	808.75
427.71	844.75
427.84	792.00
427.97	830.75
428.10	893.25
428.23	862.25
428.36	817.25
428.49	751.00
428.62	975.50
428.76	946.00
428.89	853.75
429.02	791.00
429.15	844.75
429.28	950.00
429.41	823.00
429.54	831.00
429.67	815.25
429.81	876.50
429.94	838.75
430.07	810.75
430.20	889.00
430.33	915.75
430.46	805.75
430.59	795.50
430.72	835.75
430.85	794.50
430.99	824.50
431.12	806.00
431.25	907.50
431.38	917.00
431.51	846.25
431.64	839.00
431.77	924.75
431.90	918.00
432.03	834.75
432.17	801.50
432.30	852.25
432.43	865.50
432.56	834.75
432.69	859.25
432.82	849.75
432.95	900.75
433.08	833.75
433.21	843.75
433.35	831.50
433.48	840.25
433.61	798.00
433.74	821.50
433.87	807.75
434.00	877.50
434.13	806.75
434.26	860.00
434.39	861.50
434.53	873.00
434.66	827.50
434.79	827.75
434.92	834.75
435.05	924.50
435.18	810.25
435.31	862.75
435.44	911.50
435.57	852.25
435.70	830.50
435.84	802.25
435.97	912.25
436.10	948.75
436.23	817.25
436.36	800.25
436.49	823.00
436.62	863.50
436.75	829.00
436.88	856.50
437.01	817.00
437.14	803.00
437.28	788.25
437.41	809.25
437.54	907.00
437.67	883.75
437.80	814.50
437.93	788.50
438.06	972.75
438.19	901.75
438.32	795.00
438.45	807.00
438.58	873.00
438.72	927.25
438.85	875.75
438.98	824.25
439.11	861.75
439.24	924.75
439.37	905.50
439.50	858.25
439.63	900.00
439.76	819.75
439.89	805.75
440.02	816.00
440.15	862.75
440.29	920.75
440.42	837.75
440.55	827.25
440.68	920.25
440.81	974.75
440.94	845.50
441.07	830.50
441.20	950.50
441.33	865.50
441.46	817.00
441.59	810.00
441.72	838.25
441.85	858.25
441.99	868.50
442.12	860.75
442.25	934.50
442.38	876.25
442.51	856.75
442.64	795.00
442.77	849.75
442.90	828.25
443.03	794.50
443.16	818.00
443.29	860.75
443.42	921.25
443.55	826.25
443.68	842.50
443.82	789.50
443.95	830.75
444.08	819.25
444.21	825.25
444.34	821.50
444.47	832.50
444.60	825.25
444.73	838.75
444.86	854.75
444.99	909.00
445.12	860.00
445.25	842.75
445.38	862.00
445.51	884.25
445.64	844.25
445.78	809.50
445.91	786.25
446.04	961.50
446.17	883.00
446.30	786.00
446.43	870.50
446.56	845.25
446.69	809.75
446.82	813.25
446.95	895.00
447.08	892.50
447.21	833.75
447.34	819.75
447.47	896.25
447.60	878.75
447.73	831.75
447.86	860.00
447.99	848.50
448.13	861.25
448.26	879.00
448.39	827.00
448.52	881.75
448.65	876.75
448.78	824.25
448.91	819.00
449.04	875.25
449.17	825.75
449.30	861.50
449.43	849.25
449.56	847.00
449.69	911.50
449.82	838.00
449.95	792.00
450.08	900.00
450.21	879.75
450.34	835.75
450.47	832.00
450.60	881.00
450.73	848.25
450.87	824.25
451.00	854.00
451.13	883.50
451.26	1017.25
451.39	827.50
451.52	857.50
451.65	837.00
451.78	826.75
451.91	823.00
452.04	809.50
452.17	934.50
452.30	935.75
452.43	831.50
452.56	817.00
452.69	885.25
452.82	801.50
452.95	867.50
453.08	815.75
453.21	773.25
453.34	893.75
453.47	813.50
453.60	878.75
453.73	944.00
453.86	875.75
453.99	856.25
454.12	856.25
454.25	839.25
454.38	863.00
454.52	800.25
454.65	813.75
454.78	819.25
454.91	797.00
455.04	830.00
455.17	796.75
455.30	814.75
455.43	915.75
455.56	829.50
455.69	802.25
455.82	875.00
455.95	854.00
456.08	795.00
456.21	792.75
456.34	785.25
456.47	784.50
456.60	823.25
456.73	802.75
456.86	835.00
456.99	871.50
457.12	813.50
457.25	812.75
457.38	900.00
457.51	874.25
457.64	848.50
457.77	814.50
457.90	841.25
458.03	825.50
458.16	827.75
458.29	826.75
458.42	835.50
458.55	790.25
458.68	801.50
458.81	836.75
458.94	910.50
459.07	956.25
459.20	794.25
459.33	796.75
459.46	905.75
459.59	948.50
459.72	903.50
459.85	830.75
459.98	926.00
460.11	889.00
460.24	841.25
460.37	792.00
460.50	888.25
460.63	868.25
460.76	828.75
460.89	839.00
461.02	866.00
461.15	883.00
461.28	832.75
461.41	812.00
461.54	917.25
461.67	808.00
461.80	838.25
461.93	884.75
462.06	865.25
462.19	896.50
462.32	822.50
462.45	813.50
462.58	875.50
462.71	830.00
462.84	828.00
462.97	780.50
463.10	842.75
463.23	850.25
463.36	874.75
463.49	842.75
463.62	793.00
463.75	866.00
463.88	823.00
464.01	826.50
464.14	807.00
464.27	948.25
464.40	831.75
464.53	822.50
464.66	874.25
464.79	862.75
464.92	840.50
465.05	803.25
465.18	835.25
465.31	847.00
465.44	831.75
465.57	812.75
465.70	841.00
465.83	957.50
465.96	848.50
466.09	808.00
466.22	889.75
466.35	868.25
466.48	821.75
466.61	817.50
466.74	840.25
466.87	897.00
467.00	870.25
467.13	859.25
467.26	886.50
467.39	795.50
467.52	794.75
467.65	835.25
467.78	915.25
467.91	861.50
468.04	846.50
468.17	823.75
468.30	831.25
468.43	798.75
468.56	806.50
468.69	852.75
468.82	870.50
468.95	810.00
469.08	816.50
469.21	830.25
469.34	891.00
469.47	954.25
469.60	920.75
469.73	836.75
469.86	861.75
469.99	890.25
470.11	809.00
470.24	820.25
470.37	879.25
470.50	852.00
470.63	828.00
470.76	835.75
470.89	891.00
471.02	963.25
471.15	818.75
471.28	825.25
471.41	953.75
471.54	877.25
471.67	824.50
471.80	769.00
471.93	901.00
472.06	867.25
472.19	826.50
472.32	807.50
472.45	960.00
472.58	903.50
472.71	838.75
472.84	814.50
472.97	820.75
473.10	799.00
473.23	877.50
473.36	784.50
473.49	911.50
473.62	905.50
473.74	861.00
473.87	876.00
474.00	820.00
474.13	830.25
474.26	854.50
474.39	873.75
474.52	845.25
474.65	836.75
474.78	848.00
474.91	786.25
475.04	867.75
475.17	973.25
475.30	868.75
475.43	852.75
475.56	900.25
475.69	851.75
475.82	868.50
475.95	815.00
476.08	926.50
476.21	863.00
476.34	885.00
476.46	875.50
476.59	922.50
476.72	840.00
476.85	823.00
476.98	805.25
477.11	903.50
477.24	861.50
477.37	788.00
477.50	827.75
477.63	866.50
477.76	816.75
477.89	781.00
478.02	796.25
478.15	848.50
478.28	821.75
478.41	857.25
478.54	825.25
478.66	901.50
478.79	839.75
478.92	831.25
479.05	846.25
479.18	858.25
479.31	811.50
479.44	819.25
479.57	811.50
479.70	841.25
479.83	863.50
479.96	827.00
480.09	857.00
480.22	994.25
480.35	969.00
480.48	884.00
480.60	854.25
480.73	834.50
480.86	872.25
480.99	825.50
481.12	837.25
481.25	847.75
481.38	918.50
481.51	831.75
481.64	849.00
481.77	883.25
481.90	852.75
482.03	840.25
482.16	831.75
482.29	921.25
482.41	852.25
482.54	868.25
482.67	820.00
482.80	848.50
482.93	907.75
483.06	818.00
483.19	903.50
483.32	886.00
483.45	857.25
483.58	855.25
483.71	869.25
483.84	895.25
483.97	877.50
484.09	852.00
484.22	834.75
484.35	818.25
484.48	800.75
484.61	825.25
484.74	822.50
484.87	871.75
485.00	810.50
485.13	865.25
485.26	809.50
485.39	885.50
485.52	848.50
485.64	911.50
485.77	870.25
485.90	912.25
486.03	815.00
486.16	865.25
486.29	816.00
486.42	847.00
486.55	864.50
486.68	839.75
486.81	874.00
486.94	872.00
487.06	835.00
487.19	878.00
487.32	872.25
487.45	858.25
487.58	835.00
487.71	856.25
487.84	807.00
487.97	893.00
488.10	918.00
488.23	840.25
488.35	798.25
488.48	848.50
488.61	814.75
488.74	828.25
488.87	826.50
489.00	862.75
489.13	945.00
489.26	878.00
489.39	883.25
489.52	886.25
489.64	884.00
489.77	858.50
489.90	852.25
490.03	853.75
490.16	835.25
490.29	827.00
490.42	826.50
490.55	868.50
490.68	825.50
490.81	833.00
490.93	799.75
491.06	918.25
491.19	879.00
491.32	867.50
491.45	873.50
491.58	793.50
491.71	851.75
491.84	834.50
491.97	840.25
492.09	924.25
492.22	885.75
492.35	860.25
492.48	882.25
492.61	878.50
492.74	851.50
492.87	870.00
493.00	856.25
493.12	834.25
493.25	861.00
493.38	842.25
493.51	821.75
493.64	809.75
493.77	849.25
493.90	875.00
494.03	879.75
494.16	915.25
494.28	931.00
494.41	839.75
494.54	848.00
494.67	981.25
494.80	944.75
494.93	854.50
495.06	870.50
495.19	891.75
495.31	864.50
495.44	837.75
495.57	818.00
495.70	879.00
495.83	856.75
495.96	819.50
496.09	862.00
496.22	927.00
496.34	964.50
496.47	842.25
496.60	876.00
496.73	916.75
496.86	911.75
496.99	823.25
497.12	864.25
497.24	795.25
497.37	868.75
497.50	841.75
497.63	826.75
497.76	849.25
497.89	931.00
498.02	881.50
498.15	771.75
498.27	860.75
498.40	919.50
498.53	929.75
498.66	867.25
498.79	914.25
498.92	820.75
499.05	864.25
499.17	859.00
499.30	897.75
499.43	947.50
499.56	878.25
499.69	804.75
499.82	877.25
499.95	845.25
500.07	824.25
500.20	847.50
500.33	912.75
500.46	1012.50
500.59	859.75
500.72	871.25
500.85	911.00
500.97	915.75
501.10	905.25
501.23	824.50
501.36	876.00
501.49	940.75
501.62	883.75
501.75	858.50
501.87	932.50
502.00	817.00
502.13	877.50
502.26	869.75
502.39	821.00
502.52	851.00
502.64	807.25
502.77	841.25
502.90	900.00
503.03	867.00
503.16	832.50
503.29	826.75
503.42	918.75
503.54	872.00
503.67	861.25
503.80	881.50
503.93	925.50
504.06	826.00
504.19	862.50
504.31	909.00
504.44	878.75
504.57	884.50
504.70	870.50
504.83	809.50
504.96	881.50
505.08	862.25
505.21	859.25
505.34	970.00
505.47	931.75
505.60	908.00
505.73	910.50
505.85	905.00
505.98	1015.50
506.11	873.50
506.24	828.50
506.37	828.50
506.50	871.50
506.62	924.75
506.75	853.00
506.88	831.25
507.01	883.25
507.14	817.00
507.27	851.75
507.39	822.25
507.52	845.00
507.65	842.50
507.78	863.50
507.91	827.00
508.04	926.75
508.16	925.00
508.29	876.00
508.42	845.75
508.55	828.75
508.68	840.25
508.81	899.75
508.93	839.25
509.06	860.25
509.19	913.50
509.32	886.00
509.45	870.00
509.57	888.50
509.70	841.75
509.83	865.25
509.96	823.00
510.09	872.25
510.22	864.25
510.34	866.25
510.47	861.00
510.60	970.50
510.73	882.75
510.86	885.00
510.98	851.00
511.11	852.75
511.24	918.00
511.37	891.50
511.50	849.25
511.63	887.50
511.75	884.50
511.88	867.75
512.01	883.75
512.14	880.50
512.27	888.75
512.39	863.50
512.52	851.75
512.65	879.50
512.78	838.50
512.91	863.75
513.03	869.50
513.16	915.25
513.29	882.25
513.42	853.50
513.55	822.50
513.67	892.25
513.80	809.75
513.93	839.75
514.06	840.25
514.19	887.25
514.31	889.50
514.44	899.50
514.57	862.25
514.70	878.25
514.83	931.00
514.95	843.00
515.08	871.00
515.21	907.00
515.34	896.50
515.47	870.25
515.59	848.25
515.72	902.00
515.85	896.50
515.98	914.50
516.11	878.00
516.23	904.25
516.36	944.50
516.49	891.50
516.62	873.25
516.75	933.75
516.87	932.50
517.00	843.00
517.13	889.50
517.26	930.25
517.39	896.50
517.51	797.25
517.64	862.25
517.77	954.00
517.90	844.25
518.02	861.50
518.15	828.25
518.28	784.75
518.41	872.00
518.54	873.00
518.66	884.00
518.79	833.75
518.92	853.25
519.05	842.25
519.18	853.25
519.30	892.00
519.43	829.00
519.56	842.25
519.69	836.75
519.81	917.50
519.94	866.50
520.07	800.50
520.20	848.75
520.33	879.25
520.45	943.50
520.58	872.50
520.71	882.00
520.84	928.50
520.96	892.75
521.09	864.50
521.22	825.75
521.35	905.75
521.48	899.25
521.60	842.50
521.73	868.50
521.86	929.00
521.99	956.25
522.11	883.50
522.24	859.75
522.37	893.00
522.50	891.50
522.62	929.00
522.75	812.00
522.88	892.25
523.01	848.75
523.14	887.50
523.26	877.00
523.39	939.25
523.52	858.25
523.65	975.00
523.77	907.50
523.90	872.75
524.03	860.25
524.16	854.25
524.28	849.50
524.41	862.75
524.54	871.00
524.67	835.25
524.79	852.00
524.92	908.25
525.05	946.00
525.18	838.75
525.31	906.00
525.43	836.00
525.56	990.75
525.69	864.00
525.82	805.75
525.94	916.75
526.07	925.50
526.20	908.50
526.33	908.25
526.45	999.25
526.58	968.25
526.71	890.00
526.84	865.00
526.96	891.25
527.09	843.75
527.22	855.75
527.35	860.75
527.47	827.00
527.60	953.25
527.73	845.75
527.86	899.75
527.98	901.00
528.11	896.50
528.24	840.25
528.37	861.25
528.49	825.00
528.62	879.25
528.75	904.00
528.88	843.50
529.00	899.50
529.13	926.25
529.26	877.25
529.39	906.00
529.51	1017.25
529.64	981.25
529.77	852.00
529.90	856.00
530.02	872.75
530.15	857.00
530.28	802.00
530.40	839.75
530.53	872.25
530.66	899.25
530.79	858.50
530.91	862.00
531.04	857.25
531.17	877.50
531.30	857.50
531.42	869.50
531.55	892.25
531.68	952.50
531.81	848.25
531.93	862.50
532.06	887.50
532.19	847.25
532.31	865.75
532.44	857.75
532.57	908.25
532.70	855.00
532.82	874.25
532.95	898.50
533.08	943.50
533.21	911.50
533.33	839.25
533.46	848.75
533.59	857.75
533.71	979.50
533.84	881.50
533.97	855.50
534.10	863.00
534.22	845.50
534.35	868.50
534.48	876.75
534.61	906.00
534.73	806.00
534.86	845.50
534.99	883.25
535.11	931.50
535.24	894.25
535.37	849.75
535.50	835.25
535.62	850.50
535.75	948.75
535.88	872.00
536.00	844.00
536.13	856.00
536.26	876.50
536.39	855.00
536.51	823.75
536.64	895.25
536.77	877.50
536.89	866.75
537.02	869.00
537.15	898.25
537.28	880.75
537.40	886.50
537.53	850.25
537.66	911.25
537.78	885.50
537.91	837.75
538.04	846.00
538.17	916.00
538.29	905.00
538.42	949.25
538.55	921.25
538.67	902.50
538.80	848.50
538.93	894.50
539.05	879.75
539.18	957.00
539.31	922.00
539.44	877.00
539.56	804.50
539.69	865.75
539.82	855.00
539.94	867.00
540.07	842.25
540.20	938.75
540.32	847.50
540.45	872.00
540.58	862.25
540.71	921.00
540.83	823.75
540.96	858.00
541.09	863.25
541.21	956.50
541.34	942.00
541.47	845.50
541.59	875.25
541.72	950.50
541.85	1023.50
541.98	915.00
542.10	871.25
542.23	892.75
542.36	980.25
542.48	892.50
542.61	872.75
542.74	841.75
542.86	862.50
542.99	864.00
543.12	848.00
543.24	891.00
543.37	822.50
543.50	872.25
543.62	841.75
543.75	869.00
543.88	859.25
544.01	882.50
544.13	906.25
544.26	906.25
544.39	840.75
544.51	842.25
544.64	845.50
544.77	907.00
544.89	864.00
545.02	878.25
545.15	852.75
545.27	964.00
545.40	947.75
545.53	907.00
545.65	888.25
545.78	802.75
545.91	832.50
546.03	863.00
546.16	868.50
546.29	864.00
546.41	837.00
546.54	856.75
546.67	841.50
546.79	911.25
546.92	953.50
547.05	820.00
547.17	879.00
547.30	852.75
547.43	909.00
547.56	838.50
547.68	863.25
547.81	824.25
547.94	909.75
548.06	862.75
548.19	846.00
548.32	945.50
548.44	893.00
548.57	890.25
548.70	912.25
548.82	927.25
548.95	917.00
549.08	866.25
549.20	873.25
549.33	967.00
549.45	880.00
549.58	862.25
549.71	830.50
549.83	923.75
549.96	832.25
550.09	880.00
550.21	849.00
550.34	891.25
550.47	876.50
550.59	852.00
550.72	804.25
550.85	872.75
550.97	942.25
551.10	856.75
551.23	868.25
551.35	948.00
551.48	891.50
551.61	870.75
551.73	849.50
551.86	950.00
551.99	955.25
552.11	889.00
552.24	908.50
552.37	895.00
552.49	850.00
552.62	857.50
552.75	903.50
552.87	851.25
553.00	864.75
553.12	902.75
553.25	864.75
553.38	909.00
553.50	940.50
553.63	868.75
553.76	813.75
553.88	882.25
554.01	868.25
554.14	871.00
554.26	902.75
554.39	961.00
554.52	886.50
554.64	871.50
554.77	847.00
554.89	913.25
555.02	929.50
555.15	897.00
555.27	875.75
555.40	895.75
555.53	949.75
555.65	877.50
555.78	838.50
555.91	925.00
556.03	951.00
556.16	851.00
556.29	882.00
556.41	947.00
556.54	949.50
556.66	887.75
556.79	857.50
556.92	886.50
557.04	901.75
557.17	867.50
557.30	870.25
557.42	871.25
557.55	886.25
557.67	888.25
557.80	856.75
557.93	888.75
558.05	881.00
558.18	844.25
558.31	871.25
558.43	926.50
558.56	897.00
558.68	879.50
558.81	846.50
558.94	875.75
559.06	994.75
559.19	872.50
559.32	860.75
559.44	844.00
559.57	882.50
559.69	845.25
559.82	851.00
559.95	864.75
560.07	866.50
560.20	797.50
560.33	865.25
560.45	892.50
560.58	829.00
560.70	884.50
560.83	841.25
560.96	864.25
561.08	874.75
561.21	898.75
561.33	842.00
561.46	827.25
561.59	910.50
561.71	857.75
561.84	885.75
561.97	850.00
562.09	912.00
562.22	850.75
562.34	846.00
562.47	922.25
562.60	898.00
562.72	874.25
562.85	875.50
562.97	872.25
563.10	871.50
563.23	845.75
563.35	838.25
563.48	893.00
563.60	882.50
563.73	902.00
563.86	828.25
563.98	852.25
564.11	871.75
564.23	871.00
564.36	937.50
564.49	880.25
564.61	941.50
564.74	891.00
564.86	855.00
564.99	927.00
565.12	919.50
565.24	923.50
565.37	921.50
565.49	928.00
565.62	955.25
565.75	914.50
565.87	846.00
566.00	1026.00
566.12	944.00
566.25	879.50
566.38	902.75
566.50	896.50
566.63	943.00
566.75	876.25
566.88	858.00
567.01	845.50
567.13	863.75
567.26	864.50
567.38	857.75
567.51	930.00
567.64	861.50
567.76	896.75
567.89	893.00
568.01	849.75
568.14	845.00
568.26	884.25
568.39	872.50
568.52	877.50
568.64	923.00
568.77	864.25
568.89	859.50
569.02	860.75
569.15	889.50
569.27	868.50
569.40	900.75
569.52	919.00
569.65	877.75
569.77	874.25
569.90	832.25
570.03	829.00
570.15	956.00
570.28	882.50
570.40	868.00
570.53	873.75
570.66	945.75
570.78	917.25
570.91	885.50
571.03	847.75
571.16	883.25
571.28	837.75
571.41	814.75
571.54	822.75
571.66	816.75
571.79	850.25
571.91	840.00
572.04	835.00
572.16	894.25
572.29	910.50
572.42	851.75
572.54	896.25
572.67	848.25
572.79	894.75
572.92	870.00
573.04	903.00
573.17	926.50
573.29	889.25
573.42	861.00
573.55	916.75
573.67	910.25
573.80	875.00
573.92	841.25
574.05	887.50
574.17	939.50
574.30	872.00
574.43	864.50
574.55	867.75
574.68	895.50
574.80	865.50
574.93	867.00
575.05	841.50
575.18	865.50
575.30	869.00
575.43	902.00
575.56	938.50
575.68	902.25
575.81	868.50
575.93	842.25
576.06	906.75
576.18	914.75
576.31	865.75
576.43	843.75
576.56	977.25
576.69	941.50
576.81	887.50
576.94	865.50
577.06	889.50
577.19	912.50
577.31	890.75
577.44	899.00
577.56	926.50
577.69	895.50
577.82	899.75
577.94	854.25
578.07	830.75
578.19	910.75
578.32	904.75
578.44	852.00
578.57	870.75
578.69	928.75
578.82	890.50
578.94	910.75
579.07	945.75
579.19	928.50
579.32	885.25
579.45	887.25
579.57	884.50
579.70	847.25
579.82	890.50
579.95	868.50
580.07	959.00
580.20	883.00
580.32	872.25
580.45	914.75
580.57	934.75
580.70	887.50
580.82	895.00
580.95	905.00
581.08	837.50
581.20	928.25
581.33	861.00
581.45	899.75
581.58	886.50
581.70	904.25
581.83	801.25
581.95	893.75
582.08	909.25
582.20	877.00
582.33	878.25
582.45	858.50
582.58	873.25
582.70	901.25
582.83	856.50
582.95	878.75
583.08	933.00
583.21	951.25
583.33	893.75
583.46	859.50
583.58	847.25
583.71	922.75
583.83	893.00
583.96	902.50
584.08	922.00
584.21	922.50
584.33	916.75
584.46	873.00
584.58	846.75
584.71	915.00
584.83	908.50
584.96	886.75
585.08	874.50
585.21	994.00
585.33	954.25
585.46	923.25
585.58	927.25
585.71	866.50
585.83	893.50
585.96	931.00
586.08	923.25
586.21	912.50
586.33	914.25
586.46	840.75
586.59	923.50
586.71	867.50
586.84	908.00
586.96	889.00
587.09	828.00
587.21	868.50
587.34	915.75
587.46	853.75
587.59	841.25
587.71	887.50
587.84	858.00
587.96	822.00
588.09	844.75
588.21	907.75
588.34	871.75
588.46	886.25
588.59	858.75
588.71	903.00
588.84	900.75
588.96	877.50
589.09	987.00
589.21	898.75
589.34	860.00
589.46	885.50
589.59	905.25
589.71	953.50
589.84	842.75
589.96	863.25
590.09	888.25
590.21	926.50
590.34	898.50
590.46	900.25
590.59	867.50
590.71	875.00
590.84	934.25
590.96	850.75
591.09	914.25
591.21	893.00
591.34	867.25
591.46	873.00
591.59	957.25
591.71	919.25
591.83	881.00
591.96	828.50
592.08	872.25
592.21	910.50
592.33	883.25
592.46	873.50
592.58	902.50
592.71	936.25
592.83	968.25
592.96	919.75
593.08	957.50
593.21	850.25
593.33	832.75
593.46	880.00
593.58	889.25
593.71	931.25
593.83	938.25
593.96	865.00
594.08	1019.25
594.21	906.50
594.33	870.75
594.46	858.50
594.58	844.50
594.71	828.50
594.83	901.25
594.96	878.25
595.08	1049.75
595.20	918.75
595.33	893.50
595.45	855.75
595.58	978.25
595.70	916.25
595.83	872.25
595.95	883.00
596.08	900.50
596.20	839.00
596.33	838.75
596.45	880.50
596.58	864.75
596.70	854.75
596.83	865.00
596.95	865.75
597.08	897.25
597.20	848.50
597.32	864.00
597.45	893.25
597.57	881.00
597.70	929.25
597.82	877.50
597.95	887.00
598.07	895.00
598.20	906.50
598.32	886.25
598.45	882.75
598.57	938.75
598.70	963.00
598.82	874.00
598.94	870.00
599.07	937.50
599.19	898.00
599.32	866.00
599.44	795.25
599.57	927.75
599.69	904.75
599.82	879.00
599.94	847.75
600.07	959.50
600.19	917.75
600.31	860.50
600.44	919.25
600.56	1009.25
600.69	991.25
600.81	872.75
600.94	875.00
601.06	893.75
601.19	926.50
601.31	922.25
601.44	841.00
601.56	966.75
601.68	930.25
601.81	919.75
601.93	902.25
602.06	929.75
602.18	848.75
602.31	876.00
602.43	947.75
602.56	934.00
602.68	891.50
602.80	898.50
602.93	909.50
603.05	870.50
603.18	890.50
603.30	848.25
603.43	854.50
603.55	890.25
603.68	908.50
603.80	904.25
603.92	894.75
604.05	870.75
604.17	884.00
604.30	853.50
604.42	875.50
604.55	887.50
604.67	931.25
604.79	877.75
604.92	886.25
605.04	880.00
605.17	871.00
605.29	872.50
605.42	868.75
605.54	965.50
605.66	907.50
605.79	908.75
605.91	873.25
606.04	888.25
606.16	880.50
606.29	892.50
606.41	854.00
606.53	884.00
606.66	830.50
606.78	873.75
606.91	868.50
607.03	873.25
607.16	868.75
607.28	856.75
607.40	893.75
607.53	921.75
607.65	860.75
607.78	859.00
607.90	893.75
608.03	1003.75
608.15	911.75
608.27	905.00
608.40	849.50
608.52	909.50
608.65	882.75
608.77	919.00
608.89	897.50
609.02	979.25
609.14	989.00
609.27	912.75
609.39	922.50
609.52	867.75
609.64	822.25
609.76	856.00
609.89	877.50
610.01	957.50
610.14	925.50
610.26	882.25
610.38	852.25
610.51	949.00
610.63	880.75
610.76	848.50
610.88	912.00
611.01	957.25
611.13	1006.25
611.25	927.00
611.38	856.50
611.50	892.00
611.63	916.75
611.75	890.50
611.87	912.25
612.00	870.25
612.12	943.50
612.25	879.75
612.37	865.50
612.49	968.25
612.62	949.75
612.74	963.50
612.87	888.75
612.99	897.50
613.11	847.25
613.24	881.50
613.36	881.75
613.49	907.00
613.61	903.25
613.73	866.50
613.86	927.50
613.98	865.25
614.11	934.25
614.23	927.75
614.35	937.75
614.48	940.25
614.60	904.75
614.72	883.75
614.85	911.50
614.97	903.75
615.10	911.75
615.22	881.25
615.34	901.25
615.47	952.00
615.59	879.25
615.72	900.25
615.84	904.50
615.96	871.25
616.09	998.50
616.21	884.25
616.34	873.25
616.46	884.50
616.58	923.75
616.71	921.50
616.83	933.00
616.95	929.75
617.08	931.50
617.20	894.25
617.33	854.00
617.45	885.00
617.57	917.50
617.70	904.50
617.82	879.25
617.95	908.50
618.07	975.00
618.19	912.75
618.32	915.00
618.44	883.50
618.56	856.00
618.69	828.00
618.81	841.75
618.94	933.75
619.06	901.25
619.18	881.75
619.31	847.50
619.43	864.75
619.55	909.00
619.68	908.75
619.80	852.25
619.92	919.50
620.05	1035.00
620.17	947.25
620.30	895.75
620.42	924.00
620.54	954.50
620.67	874.00
620.79	901.00
620.91	926.75
621.04	974.00
621.16	888.00
621.29	874.50
621.41	847.50
621.53	884.75
621.66	879.75
621.78	870.25
621.90	935.25
622.03	1005.00
622.15	907.50
622.27	893.50
622.40	911.75
622.52	878.50
622.64	865.25
622.77	844.75
622.89	911.25
623.02	943.75
623.14	915.75
623.26	932.25
623.39	929.00
623.51	959.25
623.63	899.75
623.76	862.75
623.88	958.50
624.00	905.75
624.13	861.75
624.25	861.25
624.37	858.25
624.50	946.25
624.62	917.25
624.75	857.00
624.87	858.25
624.99	891.50
625.12	867.50
625.24	882.25
625.36	977.00
625.49	926.50
625.61	905.75
625.73	908.75
625.86	949.00
625.98	901.50
626.10	864.75
626.23	844.25
626.35	921.50
626.47	887.50
626.60	854.75
626.72	869.25
626.84	882.25
626.97	917.00
627.09	894.75
627.21	886.50
627.34	1024.75
627.46	1007.00
627.58	888.00
627.71	904.00
627.83	931.50
627.95	857.00
628.08	885.50
628.20	940.25
628.32	840.75
628.45	820.25
628.57	831.75
628.69	862.00
628.82	921.00
628.94	954.00
629.06	887.75
629.19	870.25
629.31	935.75
629.43	864.00
629.56	903.25
629.68	894.00
629.80	951.25
629.93	857.75
630.05	859.25
630.17	859.50
630.30	889.00
630.42	867.25
630.54	924.50
630.67	897.75
630.79	875.75
630.91	1032.00
631.04	909.25
631.16	897.75
631.28	906.00
631.41	879.50
631.53	854.25
631.65	889.50
631.78	921.50
631.90	902.50
632.02	887.25
632.14	811.50
632.27	957.00
632.39	897.25
632.51	867.00
632.64	937.25
632.76	895.25
632.88	883.75
633.01	904.25
633.13	880.00
633.25	906.25
633.38	1017.50
633.50	838.50
633.62	841.50
633.75	832.75
633.87	819.25
633.99	905.00
634.11	841.00
634.24	885.00
634.36	881.25
634.48	884.50
634.61	874.25
634.73	928.25
634.85	873.75
634.98	869.25
635.10	878.50
635.22	895.25
635.35	1023.50
635.47	910.75
635.59	882.75
635.71	918.50
635.84	953.25
635.96	874.00
636.08	928.00
636.21	868.75
636.33	911.25
636.45	893.25
636.58	869.50
636.70	838.75
636.82	921.00
636.94	868.75
637.07	837.75
637.19	928.00
637.31	928.50
637.44	917.25
637.56	840.75
637.68	913.50
637.81	911.25
637.93	903.25
638.05	856.00
638.17	948.25
638.30	1013.75
638.42	892.25
638.54	864.75
638.67	892.25
638.79	902.50
638.91	860.75
639.03	875.25
639.16	892.75
639.28	897.25
639.40	897.00
639.53	869.50
639.65	939.75
639.77	896.50
639.89	897.50
640.02	886.25
640.14	910.00
640.26	866.25
640.39	926.00
640.51	862.25
640.63	912.25
640.75	953.25
640.88	899.50
641.00	865.75
641.12	868.50
641.24	971.25
641.37	878.50
641.49	860.75
641.61	1003.75
641.74	873.00
641.86	902.50
641.98	849.00
642.10	916.50
642.23	922.00
642.35	878.50
642.47	905.00
642.60	905.50
642.72	934.00
642.84	832.75
642.96	850.75
643.09	849.75
643.21	851.75
643.33	852.25
643.45	859.00
643.58	943.00
643.70	979.00
643.82	880.75
643.94	877.75
644.07	909.75
644.19	915.25
644.31	896.50
644.44	887.50
644.56	891.00
644.68	847.25
644.80	854.75
644.93	849.25
645.05	862.00
645.17	906.50
645.29	904.25
645.42	905.75
645.54	902.50
645.66	922.00
645.78	883.00
645.91	866.25
646.03	920.00
646.15	978.00
646.27	871.50
646.40	895.00
646.52	926.75
646.64	942.75
646.76	892.50
646.89	837.75
647.01	930.75
647.13	931.50
647.25	920.75
647.38	874.75
647.50	866.00
647.62	938.25
647.74	845.75
647.87	851.00
647.99	904.00
648.11	923.75
648.23	887.25
648.36	829.25
648.48	962.00
648.60	900.00
648.72	866.00
648.85	855.25
648.97	947.50
649.09	918.00
649.21	862.75
649.34	907.00
649.46	926.00
649.58	909.00
649.70	923.75
649.83	874.25
649.95	921.50
650.07	930.00
650.19	933.25
650.32	896.75
650.44	950.25
650.56	918.50
650.68	873.25
650.81	867.25
650.93	883.50
651.05	963.25
651.17	866.25
651.29	912.25
651.42	890.00
651.54	914.00
651.66	859.75
651.78	866.75
651.91	921.75
652.03	1015.50
652.15	916.75
652.27	865.50
652.40	913.25
652.52	900.50
652.64	906.25
652.76	871.00
652.88	1004.00
653.01	907.75
653.13	852.50
653.25	827.50
653.37	931.50
653.50	963.75
653.62	920.50
653.74	843.50
653.86	931.75
653.98	933.50
654.11	860.00
654.23	880.75
654.35	881.25
654.47	1018.25
654.60	884.75
654.72	889.75
654.84	861.25
654.96	940.75
655.08	870.25
655.21	917.00
655.33	906.25
655.45	959.75
655.57	904.25
655.70	896.75
655.82	953.00
655.94	987.25
656.06	932.00
656.18	858.75
656.31	961.00
656.43	933.25
656.55	868.75
656.67	884.00
656.79	905.25
656.92	954.00
657.04	923.25
657.16	879.50
657.28	1034.50
657.40	927.25
657.53	928.00
657.65	889.75
657.77	958.75
657.89	968.25
658.01	890.50
658.14	856.50
658.26	915.00
658.38	882.00
658.50	853.25
658.62	854.75
658.75	1029.50
658.87	947.00
658.99	924.50
659.11	865.00
659.23	950.25
659.36	1022.75
659.48	960.00
659.60	921.75
659.72	919.75
659.84	900.00
659.97	931.75
660.09	929.50
660.21	1023.75
660.33	959.75
660.45	842.00
660.58	823.50
660.70	877.50
660.82	896.00
660.94	854.25
661.06	890.75
661.19	967.00
661.31	946.00
661.43	894.50
661.55	880.75
661.67	941.50
661.80	988.50
661.92	894.75
662.04	909.75
662.16	916.75
662.28	969.50
662.40	899.50
662.53	902.75
662.65	929.50
662.77	888.50
662.89	889.00
663.01	891.50
663.14	910.00
663.26	940.00
663.38	904.75
663.50	865.25
663.62	878.25
663.74	904.25
663.87	870.00
663.99	906.00
664.11	953.00
664.23	1039.00
664.35	904.75
664.48	886.50
664.60	900.00
664.72	886.75
664.84	857.50
664.96	891.50
665.08	955.75
665.21	927.25
665.33	941.00
665.45	854.50
665.57	917.25
665.69	993.00
665.81	898.00
665.94	863.25
666.06	876.25
666.18	925.00
666.30	886.00
666.42	872.75
666.54	920.25
666.67	943.25
666.79	874.75
666.91	940.75
667.03	898.00
667.15	861.75
667.27	886.00
667.40	865.50
667.52	893.00
667.64	952.50
667.76	888.75
667.88	861.00
668.00	934.25
668.13	946.25
668.25	867.50
668.37	872.25
668.49	881.00
668.61	961.25
668.73	889.25
668.85	902.00
668.98	933.75
669.10	927.75
669.22	886.25
669.34	886.50
669.46	952.50
669.58	905.50
669.71	911.50
669.83	897.25
669.95	893.00
670.07	908.75
670.19	867.75
670.31	894.75
670.43	887.50
670.56	939.00
670.68	949.50
670.80	918.25
670.92	912.25
671.04	974.75
671.16	897.00
671.28	886.50
671.41	898.50
671.53	940.25
671.65	884.50
671.77	889.00
671.89	1066.50
672.01	1011.25
672.13	935.50
672.26	879.00
672.38	917.75
672.50	877.00
672.62	894.50
672.74	915.75
672.86	907.75
672.98	920.25
673.11	905.00
673.23	916.25
673.35	976.50
673.47	907.00
673.59	897.75
673.71	861.75
673.83	928.25
673.96	1035.50
674.08	905.75
674.20	858.00
674.32	918.50
674.44	914.00
674.56	925.00
674.68	917.25
674.80	942.25
674.93	913.50
675.05	899.75
675.17	908.00
675.29	954.75
675.41	960.75
675.53	905.50
675.65	889.00
675.77	904.25
675.90	971.25
676.02	881.75
676.14	874.00
676.26	993.25
676.38	1020.25
676.50	914.25
676.62	936.25
676.74	874.00
676.87	895.25
676.99	906.25
677.11	951.75
677.23	931.00
677.35	948.00
677.47	862.25
677.59	886.00
677.71	946.50
677.83	953.50
677.96	916.25
678.08	910.75
678.20	917.25
678.32	879.75
678.44	904.50
678.56	906.25
678.68	1062.75
678.80	963.00
678.93	890.75
679.05	912.50
679.17	909.75
679.29	978.50
679.41	908.50
679.53	877.50
679.65	893.00
679.77	925.25
679.89	901.75
680.01	937.25
680.14	944.25
680.26	846.75
680.38	899.50
680.50	937.00
680.62	1005.25
680.74	944.00
680.86	900.75
680.98	916.00
681.10	949.00
681.22	1013.50
681.35	892.25
681.47	897.25
681.59	888.75
681.71	1003.00
681.83	904.25
681.95	871.75
682.07	981.25
682.19	935.50
682.31	898.00
682.43	867.50
682.56	951.25
682.68	874.25
682.80	886.00
682.92	929.00
683.04	923.00
683.16	909.25
683.28	877.50
683.40	939.75
683.52	920.00
683.64	942.25
683.76	882.25
683.89	891.50
684.01	912.50
684.13	979.75
684.25	911.25
684.37	916.00
684.49	965.75
684.61	907.25
684.73	912.25
684.85	901.00
684.97	882.25
685.09	989.25
685.21	873.50
685.34	910.25
685.46	1053.25
685.58	948.00
685.70	920.00
685.82	954.25
685.94	887.75
686.06	899.00
686.18	887.75
686.30	900.75
686.42	874.50
686.54	956.50
686.66	885.50
686.79	995.75
686.91	933.75
687.03	1028.50
687.15	944.75
687.27	911.75
687.39	918.00
687.51	1006.00
687.63	926.00
687.75	962.00
687.87	949.00
687.99	997.50
688.11	880.75
688.23	936.00
688.35	978.25
688.48	963.50
688.60	889.00
688.72	906.25
688.84	933.75
688.96	960.75
689.08	927.50
689.20	911.75
689.32	1045.75
689.44	924.75
689.56	862.25
689.68	899.75
689.80	924.50
689.92	893.25
690.04	895.00
690.16	945.50
690.28	947.00
690.41	938.00
690.53	881.00
690.65	937.50
690.77	989.00
690.89	974.25
691.01	914.00
691.13	894.75
691.25	884.50
691.37	918.25
691.49	862.25
691.61	865.25
691.73	1008.75
691.85	927.25
691.97	900.00
692.09	895.00
692.21	965.75
692.33	997.00
692.45	925.75
692.57	903.00
692.70	930.75
692.82	957.00
692.94	865.00
693.06	888.25
693.18	924.75
693.30	898.25
693.42	888.25
693.54	933.50
693.66	939.25
693.78	947.25
693.90	901.50
694.02	920.25
694.14	948.25
694.26	910.00
694.38	924.00
694.50	933.50
694.62	938.50
694.74	878.25
694.86	872.75
694.98	935.25
695.10	950.00
695.22	975.00
695.34	894.75
695.46	896.50
695.58	905.75
695.71	939.00
695.83	904.25
695.95	901.75
696.07	993.00
696.19	895.00
696.31	897.50
696.43	878.75
696.55	1014.75
696.67	937.50
696.79	893.50
696.91	921.00
697.03	891.50
697.15	998.00
697.27	931.50
697.39	894.25
697.51	962.00
697.63	891.75
697.75	886.25
697.87	921.00
697.99	864.00
698.11	848.00
698.23	881.50
698.35	888.25
698.47	903.25
698.59	933.75
698.71	906.50
698.83	956.50
698.95	894.25
699.07	938.25
699.19	894.25
699.31	902.00
699.43	892.25
699.55	954.25
699.67	898.00
699.79	904.00
699.91	893.25
700.03	935.50
700.15	913.25
700.27	871.75
700.39	911.00
700.51	875.50
700.63	904.50
700.75	907.75
700.87	937.00
700.99	912.25
701.11	940.75
701.24	915.75
701.36	959.00
701.48	970.00
701.60	949.75
701.72	887.25
701.84	1000.50
701.96	945.25
702.08	918.75
702.20	1006.00
702.32	953.50
702.44	947.00
702.56	914.25
702.68	909.75
702.80	925.75
702.92	1027.00
703.04	982.00
703.16	925.00
703.28	939.00
703.40	920.00
703.52	939.25
703.64	942.50
703.76	940.75
703.88	909.50
704.00	896.25
704.12	910.25
704.24	970.75
704.36	946.00
704.48	933.50
704.60	882.00
704.72	922.25
704.84	917.25
704.96	952.00
705.07	928.75
705.19	886.25
705.31	909.00
705.43	960.50
705.55	905.00
705.67	947.75
705.79	928.50
705.91	861.25
706.03	922.75
706.15	936.75
706.27	924.25
706.39	910.00
706.51	908.75
706.63	915.25
706.75	950.00
706.87	937.00
706.99	994.50
707.11	929.75
707.23	921.50
707.35	951.25
707.47	919.75
707.59	961.00
707.71	973.25
707.83	915.00
707.95	958.00
708.07	924.00
708.19	1056.50
708.31	936.25
708.43	888.75
708.55	951.25
708.67	991.25
708.79	937.00
708.91	957.00
709.03	944.50
709.15	983.75
709.27	901.50
709.39	934.00
709.51	929.25
709.63	955.75
709.75	943.00
709.87	877.50
709.99	966.00
710.11	904.50
710.23	905.25
710.35	890.75
710.47	1040.50
710.58	997.25
710.70	982.25
710.82	970.00
710.94	932.00
711.06	933.00
711.18	940.50
711.30	904.50
711.42	970.25
711.54	925.25
711.66	948.75
711.78	891.75
711.90	970.25
712.02	1008.00
712.14	897.50
712.26	882.50
712.38	986.00
712.50	1000.50
712.62	916.25
712.74	906.00
712.86	914.00
712.98	982.00
713.10	921.75
713.22	879.75
713.34	939.75
713.45	912.75
713.57	940.50
713.69	898.25
713.81	919.00
713.93	948.00
714.05	922.00
714.17	878.75
714.29	1001.25
714.41	983.00
714.53	912.00
714.65	946.75
714.77	933.00
714.89	884.50
715.01	974.50
715.13	895.75
715.25	930.25
715.37	902.75
715.49	875.75
715.61	940.00
715.72	960.00
715.84	987.00
715.96	917.75
716.08	927.75
716.20	1012.00
716.32	990.75
716.44	914.25
716.56	927.00
716.68	948.25
716.80	1032.50
716.92	991.00
717.04	945.50
717.16	969.50
717.28	933.25
717.40	918.25
717.52	935.25
717.63	905.75
717.75	940.25
717.87	936.00
717.99	946.00
718.11	923.25
718.23	998.25
718.35	946.00
718.47	928.00
718.59	908.75
718.71	937.75
718.83	903.25
718.95	952.50
719.07	906.25
719.19	928.25
719.30	925.25
719.42	943.25
719.54	926.00
719.66	951.75
719.78	937.75
719.90	871.25
720.02	928.00
720.14	957.75
720.26	965.75
720.38	960.00
720.50	918.50
720.62	863.00
720.74	927.00
720.85	949.00
720.97	1004.75
721.09	1042.50
721.21	934.25
721.33	999.00
721.45	947.00
721.57	956.50
721.69	905.50
721.81	880.75
721.93	1009.25
722.05	955.75
722.16	895.50
722.28	887.25
722.40	919.25
722.52	995.00
722.64	994.75
722.76	891.25
722.88	958.25
723.00	971.75
723.12	928.75
723.24	949.25
723.36	881.50
723.47	984.00
723.59	943.00
723.71	911.75
723.83	960.50
723.95	918.25
724.07	931.50
724.19	951.75
724.31	1026.25
724.43	915.75
724.55	858.25
724.66	902.50
724.78	1080.00
724.90	907.00
725.02	901.50
725.14	912.75
725.26	946.00
725.38	877.25
725.50	924.25
725.62	947.00
725.74	941.75
725.85	933.50
725.97	927.50
726.09	986.75
726.21	1262.75
726.33	982.50
726.45	927.25
726.57	906.00
726.69	947.50
726.81	952.75
726.92	929.50
727.04	936.00
727.16	968.25
727.28	935.25
727.40	928.25
727.52	940.50
727.64	1070.50
727.76	1033.00
727.88	960.00
727.99	899.75
728.11	907.50
728.23	936.50
728.35	913.25
728.47	910.00
728.59	915.75
728.71	957.50
728.83	940.50
728.94	964.25
729.06	1043.25
729.18	1014.25
729.30	956.25
729.42	929.75
729.54	1035.25
729.66	1045.25
729.78	944.50
729.90	948.50
730.01	922.75
730.13	869.25
730.25	926.75
730.37	916.50
730.49	970.00
730.61	958.50
730.73	950.50
730.84	982.00
730.96	973.25
731.08	961.00
731.20	941.00
731.32	947.00
731.44	1108.00
731.56	945.50
731.68	903.25
731.79	958.25
731.91	921.00
732.03	928.00
732.15	935.75
732.27	915.50
732.39	926.00
732.51	983.25
732.62	924.00
732.74	944.00
732.86	1001.75
732.98	974.75
733.10	939.00
733.22	954.00
733.34	970.25
733.45	889.25
733.57	929.75
733.69	899.50
733.81	931.50
733.93	944.75
734.05	860.00
734.17	929.00
734.28	948.25
734.40	947.25
734.52	924.25
734.64	923.75
734.76	1034.25
734.88	961.25
735.00	919.25
735.11	937.25
735.23	1002.50
735.35	927.00
735.47	876.25
735.59	973.00
735.71	941.25
735.83	961.00
735.94	962.00
736.06	937.75
736.18	1006.25
736.30	991.50
736.42	971.75
736.54	966.25
736.65	987.50
736.77	1093.00
736.89	1001.00
737.01	953.25
737.13	1064.75
737.25	876.25
737.36	903.25
737.48	937.25
737.60	956.75
737.72	946.50
737.84	941.75
737.96	991.25
738.08	947.75
738.19	1046.25
738.31	921.50
738.43	951.00
738.55	954.75
738.67	958.75
738.79	913.00
738.90	934.25
739.02	964.00
739.14	933.00
739.26	945.25
739.38	944.25
739.50	982.75
739.61	949.50
739.73	939.50
739.85	940.25
739.97	976.50
740.09	1017.50
740.20	900.75
740.32	947.50
740.44	976.00
740.56	922.25
740.68	932.75
740.80	940.75
740.91	949.50
741.03	995.00
741.15	970.25
741.27	922.00
741.39	995.00
741.51	965.00
741.62	991.50
741.74	950.00
741.86	948.50
741.98	924.25
742.10	954.75
742.21	958.25
742.33	947.50
742.45	911.50
742.57	1004.00
742.69	941.50
742.80	993.25
742.92	946.50
743.04	934.50
743.16	932.50
743.28	1014.75
743.40	919.25
743.51	909.25
743.63	911.75
743.75	946.75
743.87	946.25
743.99	970.00
744.10	938.25
744.22	956.50
744.34	932.75
744.46	969.25
744.58	956.00
744.69	870.00
744.81	955.50
744.93	902.50
745.05	903.00
745.17	1027.75
745.28	1033.25
745.40	969.00
745.52	934.50
745.64	961.25
745.76	991.50
745.87	930.50
745.99	916.25
746.11	955.75
746.23	915.25
746.35	936.50
746.46	918.75
746.58	1057.75
746.70	953.75
746.82	960.75
746.94	949.00
747.05	928.00
747.17	899.75
747.29	897.50
747.41	934.25
747.53	1084.25
747.64	939.25
747.76	993.25
747.88	994.50
748.00	1001.25
748.12	961.25
748.23	946.00
748.35	963.25
748.47	993.00
748.59	995.75
748.70	925.00
748.82	904.75
748.94	921.75
749.06	934.75
749.18	930.50
749.29	909.75
749.41	973.00
749.53	961.00
749.65	925.25
749.76	975.00
749.88	939.25
750.00	976.25
750.12	995.75
750.24	965.00
750.35	952.50
750.47	911.75
750.59	967.75
750.71	942.00
750.82	994.25
750.94	925.25
751.06	939.50
751.18	916.00
751.30	993.00
751.41	991.50
751.53	973.25
751.65	921.25
751.77	929.00
751.88	965.00
752.00	985.00
752.12	903.75
752.24	1004.00
752.35	976.75
752.47	976.75
752.59	988.00
752.71	1041.25
752.83	927.75
752.94	1004.50
753.06	929.00
753.18	968.25
753.30	932.25
753.41	885.25
753.53	929.00
753.65	930.75
753.77	1001.75
753.88	918.75
754.00	956.25
754.12	965.75
754.24	1026.75
754.35	923.50
754.47	880.25
754.59	987.75
754.71	982.75
754.82	947.00
754.94	935.00
755.06	1013.75
755.18	978.50
755.29	961.75
755.41	929.00
755.53	981.25
755.65	921.75
755.76	966.75
755.88	955.25
756.00	1014.75
756.12	932.00
756.23	853.75
756.35	915.00
756.47	989.75
756.59	927.75
756.70	925.00
756.82	922.75
756.94	936.00
757.06	975.00
757.17	958.25
757.29	940.25
757.41	896.25
757.53	968.25
757.64	946.75
757.76	938.25
757.88	970.25
758.00	970.50
758.11	925.25
758.23	899.75
758.35	977.50
758.47	907.75
758.58	968.00
758.70	902.00
758.82	929.00
758.94	916.00
759.05	950.50
759.17	900.25
759.29	944.25
759.40	1017.25
759.52	939.25
759.64	929.00
759.76	961.00
759.87	978.00
759.99	966.00
760.11	935.50
760.23	956.75
760.34	989.00
760.46	957.75
760.58	936.50
760.70	954.00
760.81	1000.25
760.93	960.25
761.05	977.00
761.16	969.50
761.28	937.75
761.40	926.50
761.52	910.75
761.63	1013.50
761.75	950.25
761.87	931.25
761.98	895.25
762.10	975.75
762.22	947.25
762.34	989.75
762.45	928.00
762.57	981.25
762.69	1085.00
762.81	934.75
762.92	958.75
763.04	891.25
763.16	979.75
763.27	952.00
763.39	924.50
763.51	984.75
763.63	979.50
763.74	914.00
763.86	895.75
763.98	902.75
764.09	944.75
764.21	958.50
764.33	905.25
764.44	926.25
764.56	966.00
764.68	919.00
764.80	945.75
764.91	887.00
765.03	1009.00
765.15	929.75
765.26	935.25
765.38	909.50
765.50	985.00
765.62	948.75
765.73	940.75
765.85	962.50
765.97	899.75
766.08	936.50
766.20	958.25
766.32	973.75
766.43	992.50
766.55	973.00
766.67	923.50
766.79	953.75
766.90	915.75
767.02	879.75
767.14	895.50
767.25	904.50
767.37	1057.25
767.49	966.25
767.60	933.50
767.72	1016.25
767.84	979.50
767.95	923.00
768.07	908.50
768.19	969.25
768.31	979.00
768.42	958.25
768.54	928.50
768.66	946.00
768.77	980.75
768.89	937.25
769.01	911.00
769.12	965.50
769.24	952.75
769.36	906.50
769.47	900.00
769.59	890.25
769.71	968.00
769.82	932.75
769.94	919.50
770.06	905.00
770.17	992.50
770.29	954.50
770.41	963.25
770.53	969.75
770.64	903.75
770.76	944.25
770.88	953.00
770.99	979.25
771.11	906.25
771.23	952.50
771.34	941.75
771.46	1042.00
771.58	1005.75
771.69	972.75
771.81	942.25
771.93	988.50
772.04	913.75
772.16	967.25
772.28	941.75
772.39	1000.25
772.51	938.75
772.63	972.75
772.74	936.00
772.86	935.75
772.98	1064.25
773.09	919.75
773.21	917.00
773.33	968.50
773.44	964.25
773.56	947.50
773.68	938.00
773.79	993.75
773.91	941.75
774.03	954.75
774.14	937.00
774.26	996.50
774.38	920.75
774.49	901.00
774.61	942.75
774.73	957.50
774.84	939.50
774.96	907.00
775.08	938.50
775.19	974.75
775.31	1003.25
775.43	946.75
775.54	919.25
775.66	887.75
775.77	993.75
775.89	907.25
776.01	973.00
776.12	1002.75
776.24	954.00
776.36	899.75
776.47	911.00
776.59	954.75
776.71	1000.50
776.82	881.00
776.94	887.75
777.06	924.00
777.17	1016.50
777.29	909.25
777.41	912.25
777.52	961.25
777.64	937.75
777.75	966.75
777.87	884.00
777.99	931.25
778.10	994.75
778.22	923.75
778.34	937.50
778.45	940.50
778.57	994.00
778.69	976.50
778.80	952.25
778.92	1044.00
779.04	958.25
779.15	933.25
779.27	985.25
779.38	980.50
779.50	1007.25
779.62	885.75
779.73	936.50
779.85	889.00
779.97	1064.00
780.08	935.00
780.20	941.50
780.31	971.25
780.43	986.75
780.55	912.75
780.66	939.25
780.78	957.25
780.90	1048.25
781.01	918.50
781.13	938.25
781.25	929.50
781.36	995.50
781.48	907.25
781.59	928.25
781.71	981.75
781.83	977.25
781.94	910.25
782.06	909.00
782.18	986.25
782.29	913.50
782.41	888.50
782.52	982.75
782.64	994.75
782.76	954.00
782.87	963.00
782.99	931.00
783.10	1077.00
783.22	1094.00
783.34	939.75
783.45	944.50
783.57	943.50
783.69	918.00
783.80	944.00
783.92	971.00
784.03	945.25
784.15	914.00
784.27	931.00
784.38	927.50
784.50	922.25
784.61	939.50
784.73	904.00
784.85	912.00
784.96	905.75
785.08	989.25
785.19	971.00
785.31	918.00
785.43	894.75
785.54	899.25
785.66	954.00
785.77	943.25
785.89	962.50
786.01	896.75
786.12	929.25
786.24	933.75
786.35	1019.75
786.47	953.00
786.59	915.25
786.70	897.75
786.82	953.50
786.93	963.25
787.05	928.75
787.17	946.50
787.28	933.25
787.40	963.25
787.51	955.00
787.63	952.25
787.75	893.00
787.86	955.25
787.98	957.25
788.09	922.00
788.21	957.00
788.33	974.50
788.44	948.75
788.56	912.75
788.67	975.75
788.79	914.75
788.91	938.50
789.02	911.50
789.14	925.75
789.25	1032.25
789.37	950.00
789.48	907.75
789.60	951.75
789.72	916.50
789.83	957.25
789.95	947.25
790.06	888.50
790.18	906.50
790.30	970.75
790.41	943.00
790.53	903.25
790.64	886.50
790.76	894.75
790.87	915.50
790.99	938.50
791.11	941.50
791.22	908.00
791.34	929.00
791.45	964.75
791.57	972.25
791.68	920.75
791.80	906.00
791.92	979.00
792.03	914.50
792.15	885.00
792.26	911.50
792.38	885.50
792.49	963.50
792.61	930.00
792.73	934.00
792.84	930.25
792.96	1030.75
793.07	920.25
793.19	1773.75
793.30	1017.00
793.42	972.50
793.54	874.25
793.65	887.50
793.77	1071.00
793.88	920.00
794.00	869.25
794.11	923.75
794.23	868.75
794.34	925.75
794.46	865.50
794.58	879.50
794.69	1028.75
794.81	1026.75
794.92	893.25
795.04	895.75
795.15	1011.50
795.27	979.75
795.39	927.75
795.50	890.00
795.62	891.75
795.73	918.75
795.85	897.00
795.96	945.50
796.08	992.25
796.19	906.00
796.31	915.75
796.42	882.25
796.54	898.00
796.66	970.25
796.77	883.00
796.89	868.25
797.00	981.00
797.12	845.75
797.23	898.50
797.35	935.25
797.46	958.00
797.58	992.75
797.69	936.25
797.81	910.00
797.93	920.25
798.04	902.25
798.16	899.50
798.27	929.25
798.39	881.00
798.50	878.75
798.62	875.75
798.73	879.25
798.85	1004.00
798.96	928.75
799.08	939.25
799.19	955.50
799.31	933.25
799.43	924.75
799.54	882.00
799.66	926.00
799.77	941.25
799.89	892.75
800.00	856.25
800.12	898.75
800.23	976.25
800.35	1016.00
800.46	850.50
800.58	848.25
800.69	914.75
800.81	899.50
800.92	866.00
801.04	923.25
801.16	851.25
801.27	860.25
801.39	874.75
801.50	893.25
801.62	927.75
801.73	974.25
801.85	950.75
801.96	878.75
802.08	977.00
802.19	962.00
802.31	902.25
802.42	913.25
802.54	992.00
802.65	978.50
802.77	887.00
802.88	946.00
803.00	873.50
803.11	1033.50
803.23	921.00
803.34	922.50
803.46	940.50
803.57	873.75
803.69	938.75
803.80	869.50
803.92	973.25
804.03	909.75
804.15	919.00
804.26	936.25
804.38	949.75
804.50	882.00
804.61	922.25
804.73	911.50
804.84	923.75
804.96	847.50
805.07	901.50
805.19	874.50
805.30	941.50
805.42	967.50
805.53	915.25
805.65	881.75
805.76	863.50
805.88	893.75
805.99	917.50
806.11	935.00
806.22	894.25
806.34	897.75
806.45	908.25
806.57	892.00
806.68	953.50
806.80	842.75
806.91	875.50
807.03	867.25
807.14	837.50
807.26	851.75
807.37	849.75
807.49	905.00
807.60	876.25
807.72	975.75
807.83	984.25
807.95	918.75
808.06	933.00
808.17	924.00
808.29	926.00
808.40	867.75
808.52	900.50
808.63	921.25
808.75	914.25
808.86	896.75
808.98	919.50
809.09	876.25
809.21	910.00
809.32	874.00
809.44	931.00
809.55	857.50
809.67	906.25
809.78	867.75
809.90	934.25
810.01	953.00
810.13	875.75
810.24	918.75
810.36	842.00
810.47	923.50
810.59	897.25
810.70	911.50
810.82	950.50
810.93	856.00
811.05	858.25
811.16	863.25
811.27	857.00
811.39	894.00
811.50	929.00
811.62	846.75
811.73	831.25
811.85	904.25
811.96	896.25
812.08	908.00
812.19	897.00
812.31	921.00
812.42	883.25
812.54	859.50
812.65	934.00
812.77	942.25
812.88	928.75
813.00	920.50
813.11	915.25
813.22	855.50
813.34	861.00
813.45	887.50
813.57	984.00
813.68	988.00
813.80	890.00
813.91	851.75
814.03	887.00
814.14	980.00
814.26	862.50
814.37	886.00
814.49	895.25
814.60	866.50
814.71	860.00
814.83	876.50
814.94	836.00
815.06	869.25
815.17	875.00
815.29	868.75
815.40	842.25
815.52	973.25
815.63	870.00
815.75	847.50
815.86	905.00
815.97	840.25
816.09	879.25
816.20	898.00
816.32	915.50
816.43	840.25
816.55	892.75
816.66	865.00
816.78	974.50
816.89	886.00
817.00	883.25
817.12	845.00
817.23	852.50
817.35	921.00
817.46	874.00
817.58	843.00
817.69	977.75
817.81	874.75
817.92	900.00
818.03	876.75
818.15	882.50
818.26	844.25
818.38	830.50
818.49	852.75
818.61	891.00
818.72	824.75
818.83	2054.50
818.95	1024.25
819.06	849.50
819.18	855.25
819.29	873.50
819.41	862.75
819.52	885.00
819.64	878.50
819.75	844.25
819.86	815.75
819.98	846.75
820.09	895.00
820.21	865.00
820.32	828.50
820.44	889.50
820.55	947.00
820.66	844.50
820.78	892.50
820.89	863.50
821.01	890.50
821.12	864.25
821.23	866.00
821.35	852.75
821.46	915.50
821.58	863.50
821.69	844.25
821.81	837.75
821.92	906.25
822.03	845.25
822.15	866.50
822.26	822.00
822.38	829.75
822.49	869.75
822.61	861.75
822.72	877.75
822.83	926.00
822.95	857.25
823.06	860.00
823.18	914.50
823.29	945.00
823.40	888.25
823.52	854.00
823.63	813.25
823.75	958.00
823.86	861.00
823.97	806.00
824.09	892.50
824.20	821.50
824.32	855.25
824.43	836.75
824.55	897.50
824.66	950.50
824.77	857.00
824.89	876.75
825.00	929.00
825.12	867.75
825.23	879.00
825.34	806.25
825.46	825.25
825.57	890.25
825.69	828.50
825.80	777.75
825.91	821.25
826.03	797.25
826.14	865.75
826.26	812.50
826.37	854.75
826.48	837.75
826.60	856.25
826.71	822.25
826.83	866.50
826.94	872.75
827.05	892.50
827.17	884.25
827.28	846.25
827.39	833.50
827.51	803.50
827.62	836.75
827.74	844.25
827.85	833.25
827.96	822.00
828.08	835.25
828.19	945.50
828.31	837.25
828.42	787.25
828.53	860.50
828.65	897.00
828.76	902.50
828.87	861.00
828.99	804.50
