Wavelength (nm)	Intensity
377.35	842.25
377.48	586.75
377.62	616.00
377.75	608.00
377.88	806.50
378.02	792.50
378.15	791.50
378.28	765.00
378.41	832.00
378.55	807.50
378.68	793.50
378.81	768.50
378.95	794.00
379.08	783.50
379.21	758.50
379.35	815.75
379.48	818.75
379.61	882.00
379.74	825.50
379.88	816.25
380.01	878.25
380.14	935.25
380.28	870.75
380.41	792.50
380.54	849.50
380.68	861.50
380.81	780.25
380.94	857.50
381.07	887.25
381.21	899.75
381.34	825.00
381.47	770.75
381.61	976.50
381.74	842.00
381.87	800.00
382.00	859.00
382.14	912.50
382.27	869.00
382.40	805.25
382.54	898.00
382.67	888.75
382.80	800.50
382.93	811.75
383.07	836.00
383.20	830.25
383.33	859.50
383.47	817.00
383.60	801.25
383.73	965.00
383.86	866.50
384.00	830.00
384.13	824.00
384.26	867.25
384.40	883.25
384.53	844.75
384.66	888.50
384.79	852.50
384.93	824.75
385.06	832.50
385.19	861.75
385.33	948.25
385.46	870.75
385.59	818.75
385.72	861.75
385.86	802.25
385.99	828.25
386.12	841.00
386.25	809.75
386.39	880.50
386.52	891.25
386.65	837.50
386.79	834.50
386.92	823.00
387.05	914.25
387.18	797.75
387.32	815.50
387.45	878.75
387.58	855.75
387.71	839.00
387.85	830.25
387.98	858.75
388.11	874.00
388.25	861.50
388.38	849.50
388.51	877.50
388.64	885.25
388.78	834.50
388.91	809.00
389.04	845.75
389.17	944.75
389.31	861.75
389.44	892.75
389.57	913.00
389.70	887.00
389.84	837.25
389.97	840.50
390.10	829.75
390.24	872.75
390.37	848.00
390.50	840.75
390.63	919.00
390.77	854.25
390.90	865.50
391.03	855.50
391.16	803.75
391.30	846.75
391.43	841.00
391.56	845.75
391.69	818.50
391.83	898.00
391.96	859.25
392.09	847.75
392.22	938.75
392.36	879.75
392.49	829.25
392.62	858.50
392.75	884.25
392.89	913.75
393.02	835.25
393.15	843.25
393.28	814.25
393.42	940.75
393.55	813.25
393.68	850.75
393.81	798.50
393.95	843.00
394.08	844.75
394.21	847.25
394.34	900.25
394.48	891.75
394.61	904.00
394.74	878.75
394.87	906.00
395.01	889.25
395.14	898.00
395.27	847.00
395.40	952.00
395.54	947.50
395.67	871.00
395.80	858.50
395.93	882.75
396.07	851.00
396.20	844.25
396.33	802.00
396.46	856.25
396.59	863.25
396.73	870.75
396.86	840.25
396.99	916.25
397.12	889.75
397.26	870.25
397.39	877.25
397.52	1145.25
397.65	973.50
397.79	885.00
397.92	862.00
398.05	916.50
398.18	852.25
398.32	868.75
398.45	900.75
398.58	878.00
398.71	900.75
398.84	844.50
398.98	882.50
399.11	910.50
399.24	902.25
399.37	867.25
399.51	843.25
399.64	881.50
399.77	876.75
399.90	875.50
400.03	885.50
400.17	841.75
400.30	946.75
400.43	919.50
400.56	886.25
400.70	896.00
400.83	865.50
400.96	854.50
401.09	891.25
401.23	890.50
401.36	942.50
401.49	872.25
401.62	891.25
401.75	874.25
401.89	853.50
402.02	874.50
402.15	893.75
402.28	909.50
402.41	898.75
402.55	871.50
402.68	887.25
402.81	955.75
402.94	917.00
403.08	871.50
403.21	854.25
403.34	924.75
403.47	931.25
403.60	888.25
403.74	914.75
403.87	926.50
404.00	878.50
404.13	875.00
404.26	851.25
404.40	860.50
404.53	904.50
404.66	892.00
404.79	862.25
404.93	926.25
405.06	903.00
405.19	851.00
405.32	907.50
405.45	911.75
405.59	930.50
405.72	905.25
405.85	865.75
405.98	1057.00
406.11	882.00
406.25	881.25
406.38	892.50
406.51	932.50
406.64	905.75
406.77	865.00
406.91	861.25
407.04	928.00
407.17	901.75
407.30	929.25
407.43	913.00
407.57	979.25
407.70	957.50
407.83	875.75
407.96	917.00
408.09	877.50
408.23	994.00
408.36	909.00
408.49	904.75
408.62	1016.75
408.75	927.50
408.89	885.75
409.02	929.00
409.15	917.75
409.28	983.25
409.41	934.50
409.55	902.25
409.68	1029.75
409.81	937.75
409.94	881.75
410.07	917.00
410.20	929.75
410.34	920.50
410.47	919.50
410.60	931.00
410.73	946.75
410.86	893.50
411.00	929.75
411.13	899.50
411.26	928.75
411.39	924.50
411.52	947.25
411.66	913.50
411.79	906.75
411.92	893.75
412.05	926.50
412.18	917.50
412.31	941.50
412.45	959.50
412.58	973.50
412.71	892.50
412.84	957.00
412.97	1012.25
413.11	932.00
413.24	950.25
413.37	969.75
413.50	1029.25
413.63	945.75
413.76	924.25
413.90	964.00
414.03	926.75
414.16	931.00
414.29	954.50
414.42	933.75
414.56	1039.25
414.69	917.50
414.82	941.50
414.95	945.75
415.08	961.25
415.21	939.25
415.35	965.75
415.48	879.25
415.61	984.25
415.74	988.75
415.87	913.50
416.00	964.50
416.14	1050.25
416.27	961.00
416.40	925.50
416.53	944.75
416.66	972.00
416.79	955.75
416.93	923.25
417.06	1003.00
417.19	963.50
417.32	939.25
417.45	941.00
417.58	899.25
417.72	999.25
417.85	938.50
417.98	945.75
418.11	984.75
418.24	942.25
418.37	945.00
418.51	960.25
418.64	961.50
418.77	1022.50
418.90	970.75
419.03	927.25
419.16	967.25
419.29	1005.50
419.43	942.50
419.56	923.00
419.69	1062.75
419.82	1013.75
419.95	967.75
420.08	1008.25
420.22	1032.75
420.35	1075.50
420.48	1008.00
420.61	965.50
420.74	916.00
420.87	997.75
421.00	932.50
421.14	965.50
421.27	1011.25
421.40	1034.75
421.53	996.50
421.66	969.00
421.79	967.25
421.93	968.25
422.06	971.25
422.19	949.25
422.32	1016.75
422.45	1022.25
422.58	987.75
422.71	966.50
422.85	1023.25
422.98	1015.75
423.11	928.50
423.24	938.25
423.37	942.75
423.50	956.50
423.63	978.75
423.77	967.00
423.90	960.75
424.03	1006.50
424.16	1012.50
424.29	984.50
424.42	938.25
424.55	956.50
424.69	947.00
424.82	987.25
424.95	1003.25
425.08	957.75
425.21	1006.25
425.34	982.25
425.47	992.75
425.60	1008.75
425.74	945.50
425.87	981.50
426.00	986.25
426.13	999.50
426.26	969.50
426.39	978.50
426.52	987.75
426.66	1065.00
426.79	1025.75
426.92	974.50
427.05	1091.50
427.18	1070.00
427.31	991.50
427.44	1006.25
427.57	975.25
427.71	1003.50
427.84	990.50
427.97	1009.00
428.10	1061.00
428.23	1016.50
428.36	994.25
428.49	922.25
428.62	1127.75
428.76	1109.00
428.89	1025.25
429.02	976.75
429.15	1001.50
429.28	1100.50
429.41	1008.25
429.54	1028.25
429.67	995.00
429.81	1044.25
429.94	1012.75
430.07	998.75
430.20	1073.50
430.33	1095.75
430.46	993.50
430.59	989.25
430.72	1021.50
430.85	979.75
430.99	1016.75
431.12	999.50
431.25	1074.75
431.38	1101.75
431.51	1030.75
431.64	1024.50
431.77	1105.50
431.90	1096.25
432.03	1048.50
432.17	1008.00
432.30	1038.50
432.43	1055.75
432.56	1034.50
432.69	1065.50
432.82	1054.75
432.95	1088.75
433.08	1040.75
433.21	1052.50
433.35	1024.25
433.48	1032.50
433.61	1002.50
433.74	1028.75
433.87	1028.75
434.00	1069.75
434.13	1026.25
434.26	1074.75
434.39	1062.75
434.53	1066.50
434.66	1045.50
434.79	1046.75
434.92	1042.00
435.05	1110.75
435.18	1023.00
435.31	1074.75
435.44	1111.00
435.57	1065.50
435.70	1057.50
435.84	1022.75
435.97	1121.75
436.10	1164.00
436.23	1051.75
436.36	1028.00
436.49	1052.75
436.62	1073.25
436.75	1059.00
436.88	1074.75
437.01	1038.50
437.14	1030.75
437.28	1021.00
437.41	1042.75
437.54	1123.75
437.67	1097.75
437.80	1049.50
437.93	1019.50
438.06	1188.50
438.19	1115.25
438.32	1041.75
438.45	1052.00
438.58	1100.50
438.72	1150.75
438.85	1110.25
438.98	1066.50
439.11	1092.00
439.24	1158.00
439.37	1145.75
439.50	1113.50
439.63	1131.50
439.76	1058.75
439.89	1059.50
440.02	1064.75
440.15	1099.00
440.29	1144.75
440.42	1091.50
440.55	1086.00
440.68	1170.00
440.81	1206.50
440.94	1108.75
441.07	1109.50
441.20	1189.75
441.33	1120.50
441.46	1084.75
441.59	1074.00
441.72	1093.75
441.85	1098.50
441.99	1141.50
442.12	1140.50
442.25	1185.25
442.38	1134.50
442.51	1120.25
442.64	1061.00
442.77	1116.00
442.90	1090.50
443.03	1068.50
443.16	1082.50
443.29	1111.50
443.42	1182.25
443.55	1094.00
443.68	1122.25
443.82	1071.50
443.95	1094.75
444.08	1119.50
444.21	1126.75
444.34	1100.50
444.47	1121.25
444.60	1125.25
444.73	1123.50
444.86	1134.25
444.99	1188.25
445.12	1145.50
445.25	1141.75
445.38	1143.25
445.51	1169.50
445.64	1135.00
445.78	1107.75
445.91	1080.75
446.04	1241.00
446.17	1188.75
446.30	1086.75
446.43	1172.00
446.56	1149.75
446.69	1115.25
446.82	1117.50
446.95	1175.00
447.08	1187.50
447.21	1168.50
447.34	1137.75
447.47	1186.25
447.60	1178.25
447.73	1169.50
447.86	1190.50
447.99	1162.50
448.13	1170.00
448.26	1191.00
448.39	1140.75
448.52	1194.00
448.65	1212.75
448.78	1167.25
448.91	1171.25
449.04	1192.75
449.17	1149.00
449.30	1187.50
449.43	1188.00
449.56	1188.00
449.69	1228.75
449.82	1163.00
449.95	1141.00
450.08	1238.00
450.21	1215.25
450.34	1183.25
450.47	1183.50
450.60	1216.25
450.73	1191.25
450.87	1172.50
451.00	1202.25
451.13	1220.75
451.26	1325.00
451.39	1179.25
451.52	1218.75
451.65	1186.50
451.78	1184.00
451.91	1185.00
452.04	1168.75
452.17	1285.75
452.30	1271.75
452.43	1188.75
452.56	1192.00
452.69	1260.50
452.82	1182.75
452.95	1247.75
453.08	1178.00
453.21	1140.00
453.34	1247.25
453.47	1205.00
453.60	1264.50
453.73	1312.25
453.86	1258.25
453.99	1243.25
454.12	1240.25
454.25	1227.50
454.38	1240.50
454.52	1203.25
454.65	1221.25
454.78	1227.75
454.91	1182.00
455.04	1215.00
455.17	1202.75
455.30	1227.00
455.43	1290.75
455.56	1231.25
455.69	1203.25
455.82	1263.50
455.95	1270.25
456.08	1209.25
456.21	1224.00
456.34	1208.00
456.47	1203.00
456.60	1248.25
456.73	1233.50
456.86	1243.00
456.99	1280.75
457.12	1242.75
457.25	1245.50
457.38	1317.00
457.51	1304.25
457.64	1290.50
457.77	1255.75
457.90	1274.00
458.03	1277.00
458.16	1282.00
458.29	1274.50
458.42	1278.00
458.55	1240.50
458.68	1265.50
458.81	1283.25
458.94	1359.50
459.07	1384.50
459.20	1256.75
459.33	1273.00
459.46	1352.75
459.59	1390.75
459.72	1360.75
459.85	1299.75
459.98	1374.00
460.11	1346.50
460.24	1316.25
460.37	1275.25
460.50	1361.00
460.63	1339.75
460.76	1310.00
460.89	1323.50
461.02	1347.00
461.15	1372.50
461.28	1336.25
461.41	1326.50
461.54	1420.50
461.67	1306.00
461.80	1368.00
461.93	1389.25
462.06	1388.75
462.19	1401.75
462.32	1338.50
462.45	1338.00
462.58	1391.75
462.71	1332.50
462.84	1348.75
462.97	1307.50
463.10	1357.75
463.23	1383.25
463.36	1407.75
463.49	1387.25
463.62	1332.50
463.75	1406.25
463.88	1372.25
464.01	1393.50
464.14	1354.50
464.27	1473.75
464.40	1391.25
464.53	1395.25
464.66	1427.75
464.79	1418.00
464.92	1420.75
465.05	1394.00
465.18	1418.25
465.31	1423.25
465.44	1408.50
465.57	1408.50
465.70	1406.75
465.83	1530.25
465.96	1454.00
466.09	1426.50
466.22	1502.00
466.35	1468.25
466.48	1413.50
466.61	1423.25
466.74	1453.25
466.87	1500.00
467.00	1496.50
467.13	1479.00
467.26	1513.25
467.39	1438.75
467.52	1438.00
467.65	1461.75
467.78	1544.25
467.91	1488.25
468.04	1506.75
468.17	1469.50
468.30	1486.25
468.43	1457.25
468.56	1482.25
468.69	1516.50
468.82	1537.50
468.95	1472.75
469.08	1507.75
469.21	1519.00
469.34	1562.00
469.47	1627.75
469.60	1609.75
469.73	1547.50
469.86	1557.25
469.99	1593.25
470.11	1526.25
470.24	1550.75
470.37	1577.75
470.50	1558.50
470.63	1539.50
470.76	1569.75
470.89	1633.00
471.02	1693.00
471.15	1586.25
471.28	1604.25
471.41	1713.00
471.54	1651.50
471.67	1618.50
471.80	1557.50
471.93	1676.75
472.06	1643.00
472.19	1612.25
472.32	1606.75
472.45	1755.75
472.58	1718.00
472.71	1668.75
472.84	1651.75
472.97	1649.25
473.10	1640.75
473.23	1719.25
473.36	1642.00
473.49	1760.75
473.62	1737.75
473.74	1732.50
473.87	1716.75
474.00	1677.25
474.13	1690.75
474.26	1733.50
474.39	1744.00
474.52	1735.25
474.65	1722.75
474.78	1760.75
474.91	1696.50
475.04	1775.75
475.17	1861.25
475.30	1808.75
475.43	1799.00
475.56	1846.25
475.69	1783.00
475.82	1829.00
475.95	1776.25
476.08	1875.25
476.21	1819.00
476.34	1862.50
476.46	1860.75
476.59	1911.75
476.72	1830.00
476.85	1837.25
476.98	1834.50
477.11	1900.50
477.24	1862.25
477.37	1816.00
477.50	1860.50
477.63	1877.00
477.76	1860.00
477.89	1823.50
478.02	1849.00
478.15	1898.25
478.28	1912.00
478.41	1940.50
478.54	1906.50
478.66	1982.75
478.79	1918.00
478.92	1935.00
479.05	1956.75
479.18	1948.50
479.31	1930.25
479.44	1958.00
479.57	1957.00
479.70	1962.50
479.83	1994.00
479.96	1979.75
480.09	2034.75
480.22	2136.50
480.35	2122.25
480.48	2062.00
480.60	2036.00
480.73	2008.50
480.86	2082.75
480.99	2054.25
481.12	2028.50
481.25	2063.50
481.38	2135.50
481.51	2052.75
481.64	2079.50
481.77	2116.00
481.90	2088.50
482.03	2089.50
482.16	2106.50
482.29	2175.00
482.41	2124.00
482.54	2162.50
482.67	2121.00
482.80	2148.00
482.93	2192.75
483.06	2139.75
483.19	2206.00
483.32	2202.50
483.45	2176.50
483.58	2195.25
483.71	2223.50
483.84	2237.50
483.97	2233.25
484.09	2204.75
484.22	2185.00
484.35	2197.50
484.48	2163.50
484.61	2217.75
484.74	2227.50
484.87	2262.25
485.00	2209.50
485.13	2252.25
485.26	2234.00
485.39	2295.00
485.52	2257.75
485.64	2348.00
485.77	2318.00
485.90	2346.00
486.03	2249.75
486.16	2311.50
486.29	2293.75
486.42	2317.25
486.55	2324.50
486.68	2303.75
486.81	2347.00
486.94	2349.75
487.06	2339.00
487.19	2365.75
487.32	2387.25
487.45	2373.50
487.58	2335.25
487.71	2360.25
487.84	2346.50
487.97	2417.25
488.10	2435.25
488.23	2395.00
488.35	2360.00
488.48	2385.25
488.61	2388.00
488.74	2419.00
488.87	2416.50
489.00	2450.50
489.13	2528.25
489.26	2484.00
489.39	2498.25
489.52	2504.75
489.64	2487.00
489.77	2491.50
489.90	2481.25
490.03	2476.00
490.16	2489.50
490.29	2474.75
490.42	2480.50
490.55	2519.00
490.68	2473.50
490.81	2501.50
490.93	2467.00
491.06	2581.25
491.19	2549.75
491.32	2552.25
491.45	2579.00
491.58	2515.75
491.71	2553.00
491.84	2536.75
491.97	2558.75
492.09	2650.75
492.22	2594.25
492.35	2587.75
492.48	2620.25
492.61	2609.50
492.74	2599.50
492.87	2599.50
493.00	2583.25
493.12	2601.00
493.25	2641.00
493.38	2634.00
493.51	2601.25
493.64	2596.25
493.77	2651.75
493.90	2673.50
494.03	2677.75
494.16	2744.50
494.28	2728.75
494.41	2655.50
494.54	2680.75
494.67	2774.75
494.80	2743.75
494.93	2683.50
495.06	2714.25
495.19	2723.25
495.31	2726.25
495.44	2687.25
495.57	2699.25
495.70	2743.00
495.83	2724.25
495.96	2692.25
496.09	2768.25
496.22	2809.25
496.34	2837.50
496.47	2746.50
496.60	2795.50
496.73	2809.00
496.86	2806.75
496.99	2751.75
497.12	2790.00
497.24	2733.75
497.37	2810.75
497.50	2805.75
497.63	2773.00
497.76	2799.75
497.89	2876.25
498.02	2853.25
498.15	2769.75
498.27	2852.75
498.40	2901.25
498.53	2908.50
498.66	2886.75
498.79	2882.75
498.92	2823.75
499.05	2869.50
499.17	2861.00
499.30	2909.25
499.43	2957.75
499.56	2903.75
499.69	2833.25
499.82	2897.50
499.95	2891.00
500.07	2875.75
500.20	2905.25
500.33	2937.50
500.46	3060.25
500.59	2947.00
500.72	2939.75
500.85	2987.25
500.97	2991.25
501.10	2979.00
501.23	2915.75
501.36	2952.00
501.49	3017.25
501.62	3003.25
501.75	2954.00
501.87	3009.00
502.00	2926.00
502.13	2997.75
502.26	2994.75
502.39	2974.75
502.52	2977.75
502.64	2939.00
502.77	2988.00
502.90	3052.50
503.03	3020.75
503.16	2998.50
503.29	3018.50
503.42	3097.25
503.54	3031.25
503.67	3038.25
503.80	3074.25
503.93	3112.00
504.06	3018.50
504.19	3061.25
504.31	3132.50
504.44	3118.25
504.57	3120.00
504.70	3087.25
504.83	3046.75
504.96	3118.00
505.08	3101.75
505.21	3104.00
505.34	3213.00
505.47	3177.50
505.60	3151.50
505.73	3182.00
505.85	3186.50
505.98	3272.00
506.11	3158.50
506.24	3108.50
506.37	3138.25
506.50	3175.00
506.62	3223.75
506.75	3155.50
506.88	3150.00
507.01	3185.50
507.14	3138.00
507.27	3181.75
507.39	3163.25
507.52	3171.00
507.65	3194.50
507.78	3231.00
507.91	3184.50
508.04	3270.25
508.16	3270.50
508.29	3261.00
508.42	3208.50
508.55	3213.50
508.68	3215.75
508.81	3300.75
508.93	3228.00
509.06	3259.00
509.19	3290.25
509.32	3290.25
509.45	3278.25
509.57	3297.00
509.70	3267.50
509.83	3292.75
509.96	3257.75
510.09	3293.75
510.22	3312.00
510.34	3318.00
510.47	3311.50
510.60	3396.50
510.73	3321.25
510.86	3329.00
510.98	3310.50
511.11	3319.50
511.24	3397.00
511.37	3372.50
511.50	3345.75
511.63	3360.50
511.75	3356.75
511.88	3342.25
512.01	3371.25
512.14	3365.00
512.27	3394.75
512.39	3373.00
512.52	3390.00
512.65	3408.50
512.78	3364.25
512.91	3399.00
513.03	3415.50
513.16	3461.25
513.29	3426.00
513.42	3409.00
513.55	3407.25
513.67	3441.75
513.80	3392.50
513.93	3444.25
514.06	3427.75
514.19	3467.25
514.31	3485.50
514.44	3507.00
514.57	3460.25
514.70	3476.25
514.83	3513.50
514.95	3475.75
515.08	3505.00
515.21	3543.50
515.34	3517.00
515.47	3499.50
515.59	3490.25
515.72	3532.75
515.85	3521.50
515.98	3583.00
516.11	3519.00
516.23	3569.50
516.36	3577.75
516.49	3554.75
516.62	3540.50
516.75	3600.25
516.87	3616.75
517.00	3516.25
517.13	3576.75
517.26	3632.50
517.39	3579.50
517.51	3525.25
517.64	3589.25
517.77	3664.75
517.90	3573.00
518.02	3573.00
518.15	3540.50
518.28	3524.25
518.41	3594.25
518.54	3618.00
518.66	3635.25
518.79	3585.75
518.92	3596.50
519.05	3621.50
519.18	3615.75
519.30	3667.00
519.43	3597.50
519.56	3615.50
519.69	3649.00
519.81	3677.25
519.94	3661.25
520.07	3623.25
520.20	3663.50
520.33	3685.50
520.45	3710.25
520.58	3666.75
520.71	3710.00
520.84	3719.50
520.96	3719.00
521.09	3676.00
521.22	3671.25
521.35	3729.25
521.48	3745.50
521.60	3713.25
521.73	3735.50
521.86	3765.75
521.99	3790.75
522.11	3737.25
522.24	3737.75
522.37	3771.75
522.50	3767.75
522.62	3813.75
522.75	3707.50
522.88	3750.00
523.01	3756.25
523.14	3780.75
523.26	3793.00
523.39	3820.75
523.52	3742.50
523.65	3857.00
523.77	3786.00
523.90	3803.00
524.03	3789.25
524.16	3765.75
524.28	3770.25
524.41	3797.50
524.54	3809.75
524.67	3739.75
524.79	3816.25
524.92	3833.50
525.05	3872.25
525.18	3806.25
525.31	3854.75
525.43	3798.00
525.56	3927.75
525.69	3815.00
525.82	3743.50
525.94	3878.75
526.07	3881.50
526.20	3886.75
526.33	3879.00
526.45	3979.25
526.58	3925.25
526.71	3875.25
526.84	3834.25
526.96	3870.75
527.09	3853.00
527.22	3864.25
527.35	3875.25
527.47	3836.50
527.60	3924.50
527.73	3849.50
527.86	3935.00
527.98	3907.00
528.11	3922.50
528.24	3872.50
528.37	3935.25
528.49	3851.25
528.62	3938.50
528.75	3969.50
528.88	3907.75
529.00	3947.00
529.13	3972.00
529.26	3938.75
529.39	3979.50
529.51	4088.50
529.64	4054.75
529.77	3947.50
529.90	3944.75
530.02	3926.50
530.15	3938.75
530.28	3908.25
530.40	3963.75
530.53	3974.25
530.66	4005.00
530.79	3970.25
530.91	3987.00
531.04	3972.50
531.17	3994.50
531.30	4003.50
531.42	4045.75
531.55	4011.75
531.68	4070.00
531.81	3986.50
531.93	4004.00
532.06	4019.75
532.19	3970.50
532.31	4026.50
532.44	4021.00
532.57	4054.25
532.70	4006.00
532.82	4062.25
532.95	4078.00
533.08	4104.25
533.21	4066.50
533.33	4017.75
533.46	4044.00
533.59	4053.25
533.71	4175.50
533.84	4067.25
533.97	4058.50
534.10	4049.50
534.22	4056.00
534.35	4099.00
534.48	4074.25
534.61	4136.00
534.73	4056.00
534.86	4063.00
534.99	4118.50
535.11	4163.75
535.24	4122.25
535.37	4094.25
535.50	4098.75
535.62	4091.75
535.75	4165.00
535.88	4132.75
536.00	4122.50
536.13	4139.75
536.26	4145.75
536.39	4147.25
536.51	4106.00
536.64	4179.75
536.77	4151.00
536.89	4155.00
537.02	4180.75
537.15	4186.50
537.28	4172.25
537.40	4196.75
537.53	4152.75
537.66	4208.50
537.78	4196.75
537.91	4156.00
538.04	4171.50
538.17	4229.25
538.29	4206.50
538.42	4281.25
538.55	4264.50
538.67	4248.00
538.80	4206.50
538.93	4238.75
539.05	4232.75
539.18	4286.50
539.31	4262.50
539.44	4241.00
539.56	4169.75
539.69	4237.75
539.82	4228.25
539.94	4205.25
540.07	4216.00
540.20	4336.50
540.32	4234.00
540.45	4266.50
540.58	4263.50
540.71	4314.00
540.83	4224.75
540.96	4264.00
541.09	4302.00
541.21	4383.75
541.34	4343.00
541.47	4285.25
541.59	4317.50
541.72	4382.25
541.85	4438.25
541.98	4382.25
542.10	4316.25
542.23	4334.25
542.36	4446.00
542.48	4327.50
542.61	4334.00
542.74	4302.00
542.86	4322.00
542.99	4332.75
543.12	4349.75
543.24	4358.75
543.37	4304.50
543.50	4344.25
543.62	4348.75
543.75	4374.50
543.88	4327.50
544.01	4357.25
544.13	4395.50
544.26	4414.25
544.39	4364.25
544.51	4383.75
544.64	4379.75
544.77	4421.25
544.89	4364.00
545.02	4423.00
545.15	4396.25
545.27	4485.00
545.40	4466.50
545.53	4449.00
545.65	4436.00
545.78	4355.25
545.91	4385.00
546.03	4397.75
546.16	4432.00
546.29	4406.00
546.41	4389.50
546.54	4416.50
546.67	4418.00
546.79	4497.25
546.92	4529.00
547.05	4414.25
547.17	4470.50
547.30	4439.50
547.43	4487.75
547.56	4441.75
547.68	4486.00
547.81	4438.25
547.94	4462.50
548.06	4473.25
548.19	4439.00
548.32	4561.50
548.44	4489.25
548.57	4534.50
548.70	4535.25
548.82	4532.25
548.95	4515.75
549.08	4507.50
549.20	4498.50
549.33	4588.50
549.45	4517.50
549.58	4489.25
549.71	4445.25
549.83	4575.50
549.96	4483.25
550.09	4518.75
550.21	4514.50
550.34	4552.00
550.47	4520.00
550.59	4569.75
550.72	4485.50
550.85	4545.75
550.97	4596.25
551.10	4539.50
551.23	4564.50
551.35	4646.50
551.48	4604.50
551.61	4563.50
551.73	4587.50
551.86	4680.00
551.99	4645.75
552.11	4610.75
552.24	4613.75
552.37	4617.75
552.49	4607.50
552.62	4612.25
552.75	4640.00
552.87	4610.25
553.00	4609.75
553.12	4631.00
553.25	4627.75
553.38	4678.75
553.50	4702.75
553.63	4676.25
553.76	4614.75
553.88	4667.25
554.01	4647.25
554.14	4657.25
554.26	4718.00
554.39	4766.00
554.52	4687.25
554.64	4684.00
554.77	4709.00
554.89	4735.00
555.02	4765.50
555.15	4743.25
555.27	4697.50
555.40	4707.00
555.53	4812.25
555.65	4743.00
555.78	4706.00
555.91	4753.25
556.03	4804.00
556.16	4713.50
556.29	4737.25
556.41	4827.75
556.54	4817.25
556.66	4766.75
556.79	4764.50
556.92	4766.75
557.04	4800.00
557.17	4768.75
557.30	4782.75
557.42	4805.75
557.55	4796.00
557.67	4816.75
557.80	4783.75
557.93	4819.50
558.05	4838.00
558.18	4800.75
558.31	4816.00
558.43	4856.75
558.56	4840.75
558.68	4832.75
558.81	4808.00
558.94	4838.25
559.06	4941.25
559.19	4809.75
559.32	4861.25
559.44	4828.00
559.57	4866.75
559.69	4845.00
559.82	4854.00
559.95	4870.75
560.07	4859.00
560.20	4816.50
560.33	4875.50
560.45	4905.00
560.58	4869.50
560.70	4915.25
560.83	4869.50
560.96	4935.25
561.08	4915.25
561.21	4948.75
561.33	4874.00
561.46	4833.00
561.59	4971.25
561.71	4937.25
561.84	4949.25
561.97	4955.25
562.09	4997.50
562.22	4967.25
562.34	4930.50
562.47	4990.50
562.60	5007.00
562.72	4937.75
562.85	4982.75
562.97	4991.50
563.10	4993.00
563.23	4988.75
563.35	4968.25
563.48	5017.50
563.60	4991.75
563.73	5021.75
563.86	4992.50
563.98	5008.25
564.11	5010.50
564.23	5004.75
564.36	5083.75
564.49	5019.75
564.61	5098.25
564.74	5044.25
564.86	5028.75
564.99	5091.00
565.12	5091.50
565.24	5126.00
565.37	5093.75
565.49	5118.25
565.62	5123.75
565.75	5110.00
565.87	5038.50
566.00	5230.75
566.12	5132.25
566.25	5083.75
566.38	5146.50
566.50	5100.75
566.63	5133.00
566.75	5082.75
566.88	5071.25
567.01	5057.75
567.13	5077.25
567.26	5097.00
567.38	5074.50
567.51	5154.50
567.64	5072.25
567.76	5143.50
567.89	5134.75
568.01	5092.50
568.14	5101.75
568.26	5130.00
568.39	5125.25
568.52	5136.75
568.64	5169.00
568.77	5150.75
568.89	5126.50
569.02	5140.00
569.15	5131.75
569.27	5148.50
569.40	5162.75
569.52	5183.25
569.65	5147.00
569.77	5126.75
569.90	5144.00
570.03	5101.00
570.15	5212.00
570.28	5180.75
570.40	5188.00
570.53	5174.25
570.66	5205.00
570.78	5210.00
570.91	5167.00
571.03	5136.25
571.16	5195.00
571.28	5136.25
571.41	5126.50
571.54	5166.25
571.66	5141.75
571.79	5155.00
571.91	5132.75
572.04	5168.75
572.16	5167.50
572.29	5242.25
572.42	5199.00
572.54	5210.25
572.67	5160.25
572.79	5248.25
572.92	5228.75
573.04	5226.50
573.17	5249.00
573.29	5201.25
573.42	5210.50
573.55	5264.00
573.67	5221.50
573.80	5223.75
573.92	5195.25
574.05	5226.00
574.17	5277.00
574.30	5232.25
574.43	5198.25
574.55	5213.00
574.68	5241.50
574.80	5206.00
574.93	5225.00
575.05	5221.00
575.18	5209.75
575.30	5238.00
575.43	5244.00
575.56	5277.00
575.68	5246.00
575.81	5249.00
575.93	5211.25
576.06	5279.25
576.18	5278.25
576.31	5242.00
576.43	5225.25
576.56	5365.00
576.69	5283.75
576.81	5282.00
576.94	5228.75
577.06	5274.50
577.19	5299.75
577.31	5261.00
577.44	5289.75
577.56	5311.75
577.69	5272.75
577.82	5300.50
577.94	5243.75
578.07	5205.25
578.19	5291.00
578.32	5287.00
578.44	5236.00
578.57	5265.00
578.69	5290.75
578.82	5286.50
578.94	5317.50
579.07	5322.75
579.19	5305.25
579.32	5293.25
579.45	5275.75
579.57	5269.25
579.70	5264.25
579.82	5313.50
579.95	5270.75
580.07	5340.50
580.20	5255.00
580.32	5301.75
580.45	5312.25
580.57	5313.75
580.70	5361.25
580.82	5349.00
580.95	5332.25
581.08	5234.25
581.20	5370.00
581.33	5292.75
581.45	5333.75
581.58	5306.75
581.70	5343.00
581.83	5256.00
581.95	5322.50
582.08	5334.50
582.20	5318.75
582.33	5309.25
582.45	5267.00
582.58	5309.75
582.70	5324.50
582.83	5309.00
582.95	5299.75
583.08	5367.00
583.21	5370.50
583.33	5348.50
583.46	5305.75
583.58	5280.00
583.71	5328.50
583.83	5364.00
583.96	5341.00
584.08	5404.50
584.21	5382.75
584.33	5374.50
584.46	5312.25
584.58	5317.50
584.71	5377.25
584.83	5398.00
584.96	5345.25
585.08	5350.25
585.21	5401.50
585.33	5396.75
585.46	5389.00
585.58	5380.75
585.71	5336.25
585.83	5349.00
585.96	5418.75
586.08	5355.25
586.21	5340.75
586.33	5399.75
586.46	5297.75
586.59	5401.50
586.71	5303.75
586.84	5384.00
586.96	5366.50
587.09	5309.25
587.21	5327.75
587.34	5396.25
587.46	5378.25
587.59	5309.00
587.71	5337.00
587.84	5320.25
587.96	5326.00
588.09	5304.00
588.21	5363.25
588.34	5362.75
588.46	5392.25
588.59	5368.00
588.71	5387.25
588.84	5372.50
588.96	5416.75
589.09	5464.25
589.21	5403.75
589.34	5319.75
589.46	5377.50
589.59	5395.75
589.71	5415.00
589.84	5333.00
589.96	5347.00
590.09	5389.00
590.21	5394.25
590.34	5382.00
590.46	5381.50
590.59	5349.00
590.71	5392.50
590.84	5419.25
590.96	5350.25
591.09	5442.25
591.21	5411.00
591.34	5399.50
591.46	5369.75
591.59	5454.00
591.71	5404.25
591.83	5405.25
591.96	5349.75
592.08	5417.75
592.21	5455.25
592.33	5403.00
592.46	5393.75
592.58	5427.25
592.71	5472.25
592.83	5481.75
592.96	5442.75
593.08	5450.00
593.21	5354.25
593.33	5352.00
593.46	5374.00
593.58	5387.00
593.71	5440.25
593.83	5465.00
593.96	5367.25
594.08	5489.00
594.21	5450.25
594.33	5405.00
594.46	5400.75
594.58	5376.50
594.71	5360.00
594.83	5419.50
594.96	5439.75
595.08	5555.50
595.20	5443.50
595.33	5444.00
595.45	5404.00
595.58	5527.00
595.70	5460.75
595.83	5413.50
595.95	5467.25
596.08	5451.00
596.20	5412.75
596.33	5391.50
596.45	5435.75
596.58	5402.00
596.70	5425.50
596.83	5428.25
596.95	5446.75
597.08	5451.75
597.20	5420.25
597.32	5450.50
597.45	5473.50
597.57	5455.50
597.70	5447.75
597.82	5445.25
597.95	5467.00
598.07	5435.75
598.20	5475.25
598.32	5483.25
598.45	5476.00
598.57	5501.25
598.70	5505.00
598.82	5439.00
598.94	5461.75
599.07	5506.50
599.19	5493.25
599.32	5453.25
599.44	5392.25
599.57	5505.25
599.69	5451.50
599.82	5482.00
599.94	5431.50
600.07	5520.75
600.19	5493.25
600.31	5459.25
600.44	5518.00
600.56	5578.25
600.69	5559.50
600.81	5508.75
600.94	5463.00
601.06	5471.00
601.19	5506.50
601.31	5532.25
601.44	5420.25
601.56	5539.00
601.68	5534.50
601.81	5528.75
601.93	5465.75
602.06	5535.25
602.18	5462.25
602.31	5475.50
602.43	5534.00
602.56	5512.00
602.68	5495.25
602.80	5508.25
602.93	5520.00
603.05	5468.25
603.18	5537.50
603.30	5489.50
603.43	5482.75
603.55	5515.75
603.68	5532.75
603.80	5552.50
603.92	5524.00
604.05	5504.25
604.17	5498.25
604.30	5466.75
604.42	5469.75
604.55	5497.50
604.67	5527.00
604.79	5471.75
604.92	5510.75
605.04	5502.25
605.17	5473.25
605.29	5492.50
605.42	5485.75
605.54	5591.50
605.66	5508.75
605.79	5556.25
605.91	5519.00
606.04	5523.25
606.16	5466.75
606.29	5533.75
606.41	5494.75
606.53	5504.75
606.66	5481.25
606.78	5533.25
606.91	5480.00
607.03	5530.00
607.16	5526.00
607.28	5509.75
607.40	5529.75
607.53	5568.50
607.65	5518.25
607.78	5538.50
607.90	5533.00
608.03	5624.50
608.15	5526.25
608.27	5548.75
608.40	5496.00
608.52	5586.25
608.65	5539.75
608.77	5562.75
608.89	5515.00
609.02	5609.00
609.14	5615.25
609.27	5543.25
609.39	5605.00
609.52	5513.75
609.64	5505.00
609.76	5538.75
609.89	5507.75
610.01	5618.25
610.14	5614.75
610.26	5554.00
610.38	5542.00
610.51	5604.00
610.63	5545.25
610.76	5527.75
610.88	5579.50
611.01	5598.25
611.13	5624.25
611.25	5589.50
611.38	5527.25
611.50	5548.00
611.63	5568.25
611.75	5586.50
611.87	5566.50
612.00	5538.00
612.12	5596.25
612.25	5539.25
612.37	5531.50
612.49	5602.00
612.62	5573.00
612.74	5629.50
612.87	5575.75
612.99	5557.25
613.11	5504.00
613.24	5539.25
613.36	5569.75
613.49	5546.00
613.61	5554.00
613.73	5531.75
613.86	5569.00
613.98	5542.50
614.11	5621.75
614.23	5617.25
614.35	5623.25
614.48	5612.50
614.60	5572.25
614.72	5554.25
614.85	5562.00
614.97	5557.00
615.10	5559.25
615.22	5562.75
615.34	5582.75
615.47	5608.25
615.59	5524.00
615.72	5543.25
615.84	5546.50
615.96	5555.75
616.09	5646.75
616.21	5584.00
616.34	5511.25
616.46	5545.75
616.58	5567.00
616.71	5583.25
616.83	5570.50
616.95	5599.75
617.08	5581.50
617.20	5563.75
617.33	5527.75
617.45	5559.00
617.57	5573.75
617.70	5571.25
617.82	5525.50
617.95	5563.75
618.07	5614.50
618.19	5589.75
618.32	5591.75
618.44	5524.00
618.56	5517.75
618.69	5511.50
618.81	5488.25
618.94	5613.25
619.06	5511.25
619.18	5534.25
619.31	5500.50
619.43	5499.75
619.55	5562.50
619.68	5541.25
619.80	5528.50
619.92	5554.50
620.05	5666.50
620.17	5618.00
620.30	5530.00
620.42	5529.25
620.54	5585.50
620.67	5530.25
620.79	5554.75
620.91	5579.00
621.04	5599.50
621.16	5510.25
621.29	5523.25
621.41	5486.25
621.53	5542.75
621.66	5549.25
621.78	5521.25
621.90	5593.00
622.03	5611.75
622.15	5558.50
622.27	5530.25
622.40	5552.50
622.52	5511.00
622.64	5516.00
622.77	5477.50
622.89	5526.00
623.02	5568.75
623.14	5558.25
623.26	5574.25
623.39	5539.00
623.51	5569.50
623.63	5498.75
623.76	5500.50
623.88	5584.25
624.00	5548.50
624.13	5501.25
624.25	5519.75
624.37	5491.25
624.50	5528.00
624.62	5550.25
624.75	5484.00
624.87	5480.75
624.99	5551.50
625.12	5502.00
625.24	5482.75
625.36	5583.50
625.49	5506.75
625.61	5518.00
625.73	5529.50
625.86	5561.50
625.98	5499.25
626.10	5516.75
626.23	5453.75
626.35	5524.50
626.47	5488.50
626.60	5467.75
626.72	5466.25
626.84	5520.25
626.97	5525.50
627.09	5482.00
627.21	5515.00
627.34	5590.50
627.46	5577.75
627.58	5518.00
627.71	5488.25
627.83	5558.25
627.95	5460.75
628.08	5505.50
628.20	5492.00
628.32	5456.00
628.45	5431.50
628.57	5442.25
628.69	5462.25
628.82	5514.00
628.94	5545.50
629.06	5477.50
629.19	5480.25
629.31	5497.75
629.43	5432.00
629.56	5502.75
629.68	5473.00
629.80	5508.50
629.93	5443.00
630.05	5426.25
630.17	5435.00
630.30	5481.00
630.42	5415.25
630.54	5494.75
630.67	5483.75
630.79	5445.25
630.91	5587.25
631.04	5493.75
631.16	5492.25
631.28	5459.25
631.41	5436.00
631.53	5423.00
631.65	5454.00
631.78	5479.75
631.90	5453.25
632.02	5448.50
632.14	5355.50
632.27	5517.75
632.39	5457.25
632.51	5469.75
632.64	5479.25
632.76	5448.75
632.88	5412.50
633.01	5408.00
633.13	5454.75
633.25	5472.00
633.38	5548.25
633.50	5394.25
633.62	5401.25
633.75	5370.75
633.87	5341.50
633.99	5406.25
634.11	5374.50
634.24	5422.00
634.36	5454.00
634.48	5417.25
634.61	5404.00
634.73	5473.75
634.85	5394.00
634.98	5414.00
635.10	5424.00
635.22	5421.00
635.35	5535.00
635.47	5417.00
635.59	5408.50
635.71	5412.25
635.84	5483.00
635.96	5419.25
636.08	5457.50
636.21	5369.75
636.33	5429.00
636.45	5405.25
636.58	5355.25
636.70	5373.50
636.82	5420.00
636.94	5406.75
637.07	5363.00
637.19	5428.00
637.31	5427.75
637.44	5423.00
637.56	5366.25
637.68	5409.75
637.81	5395.00
637.93	5401.25
638.05	5352.25
638.17	5465.75
638.30	5498.25
638.42	5384.25
638.54	5365.00
638.67	5381.00
638.79	5406.50
638.91	5362.75
639.03	5351.75
639.16	5383.75
639.28	5363.00
639.40	5380.50
639.53	5366.25
639.65	5425.25
639.77	5359.50
639.89	5375.00
640.02	5369.00
640.14	5372.50
640.26	5333.00
640.39	5375.25
640.51	5330.75
640.63	5361.50
640.75	5436.75
640.88	5366.50
641.00	5325.50
641.12	5317.50
641.24	5407.00
641.37	5349.00
641.49	5300.00
641.61	5482.75
641.74	5342.00
641.86	5407.50
641.98	5330.25
642.10	5364.00
642.23	5364.00
642.35	5333.75
642.47	5382.75
642.60	5380.75
642.72	5377.75
642.84	5279.00
642.96	5305.00
643.09	5284.75
643.21	5294.00
643.33	5317.25
643.45	5316.25
643.58	5348.00
643.70	5373.25
643.82	5328.25
643.94	5331.75
644.07	5334.25
644.19	5354.75
644.31	5376.50
644.44	5373.75
644.56	5310.00
644.68	5275.25
644.80	5282.25
644.93	5298.50
645.05	5289.25
645.17	5357.50
645.29	5337.00
645.42	5349.75
645.54	5325.50
645.66	5343.75
645.78	5329.50
645.91	5284.00
646.03	5318.00
646.15	5384.75
646.27	5301.75
646.40	5338.00
646.52	5344.50
646.64	5332.25
646.76	5342.25
646.89	5264.00
647.01	5327.75
647.13	5325.25
647.25	5376.75
647.38	5291.75
647.50	5299.25
647.62	5326.25
647.74	5258.50
647.87	5272.00
647.99	5327.00
648.11	5362.25
648.23	5298.50
648.36	5243.50
648.48	5335.25
648.60	5284.25
648.72	5286.25
648.85	5236.00
648.97	5323.50
649.09	5319.25
649.21	5307.25
649.34	5305.75
649.46	5332.75
649.58	5347.25
649.70	5337.00
649.83	5283.50
649.95	5348.00
650.07	5327.75
650.19	5311.25
650.32	5311.00
650.44	5350.75
650.56	5287.75
650.68	5283.00
650.81	5305.50
650.93	5276.25
651.05	5340.75
651.17	5254.25
651.29	5297.50
651.42	5268.25
651.54	5299.25
651.66	5255.50
651.78	5265.00
651.91	5340.75
652.03	5395.25
652.15	5297.25
652.27	5263.50
652.40	5315.00
652.52	5239.75
652.64	5290.00
652.76	5243.25
652.88	5368.50
653.01	5272.50
653.13	5230.75
653.25	5197.25
653.37	5296.00
653.50	5327.00
653.62	5292.50
653.74	5240.25
653.86	5334.50
653.98	5314.00
654.11	5252.50
654.23	5266.00
654.35	5250.50
654.47	5346.25
654.60	5265.00
654.72	5252.75
654.84	5241.00
654.96	5299.75
655.08	5248.25
655.21	5280.25
655.33	5251.50
655.45	5311.25
655.57	5264.25
655.70	5263.00
655.82	5308.25
655.94	5306.00
656.06	5294.25
656.18	5181.25
656.31	5283.00
656.43	5275.25
656.55	5217.25
656.67	5248.00
656.79	5235.25
656.92	5292.25
657.04	5263.25
657.16	5228.25
657.28	5363.00
657.40	5248.50
657.53	5307.75
657.65	5240.50
657.77	5283.25
657.89	5313.00
658.01	5219.25
658.14	5198.75
658.26	5281.75
658.38	5218.75
658.50	5224.50
658.62	5206.75
658.75	5353.00
658.87	5265.25
658.99	5267.00
659.11	5209.00
659.23	5280.50
659.36	5353.75
659.48	5292.50
659.60	5272.00
659.72	5266.25
659.84	5227.75
659.97	5274.00
660.09	5249.50
660.21	5352.25
660.33	5286.25
660.45	5193.50
660.58	5165.75
660.70	5205.25
660.82	5233.00
660.94	5180.75
661.06	5227.00
661.19	5258.25
661.31	5274.50
661.43	5204.00
661.55	5202.75
661.67	5273.75
661.80	5287.75
661.92	5197.00
662.04	5250.75
662.16	5248.25
662.28	5285.00
662.40	5243.75
662.53	5230.50
662.65	5266.50
662.77	5213.75
662.89	5237.50
663.01	5203.75
663.14	5196.25
663.26	5237.75
663.38	5222.75
663.50	5159.75
663.62	5236.75
663.74	5240.50
663.87	5215.00
663.99	5234.75
664.11	5247.00
664.23	5329.75
664.35	5204.00
664.48	5196.00
664.60	5206.25
664.72	5187.25
664.84	5185.00
664.96	5165.75
665.08	5270.00
665.21	5210.25
665.33	5246.75
665.45	5165.25
665.57	5189.25
665.69	5280.75
665.81	5226.75
665.94	5185.75
666.06	5186.75
666.18	5218.75
666.30	5215.50
666.42	5157.00
666.54	5228.50
666.67	5233.50
666.79	5195.50
666.91	5248.50
667.03	5201.00
667.15	5123.75
667.27	5211.75
667.40	5151.00
667.52	5182.25
667.64	5205.50
667.76	5192.25
667.88	5164.75
668.00	5213.75
668.13	5209.00
668.25	5169.25
668.37	5165.25
668.49	5177.50
668.61	5222.50
668.73	5171.25
668.85	5198.75
668.98	5189.75
669.10	5170.00
669.22	5162.50
669.34	5175.00
669.46	5245.00
669.58	5125.75
669.71	5177.75
669.83	5190.25
669.95	5167.75
670.07	5195.00
670.19	5156.75
670.31	5207.50
670.43	5144.25
670.56	5224.75
670.68	5234.75
670.80	5193.75
670.92	5184.25
671.04	5247.75
671.16	5158.00
671.28	5144.75
671.41	5145.75
671.53	5216.25
671.65	5170.25
671.77	5139.25
671.89	5304.00
672.01	5294.75
672.13	5202.00
672.26	5134.75
672.38	5140.75
672.50	5119.25
672.62	5149.25
672.74	5171.00
672.86	5144.75
672.98	5146.25
673.11	5166.25
673.23	5159.50
673.35	5193.75
673.47	5139.75
673.59	5167.00
673.71	5091.50
673.83	5175.00
673.96	5283.25
674.08	5133.75
674.20	5132.75
674.32	5176.75
674.44	5158.25
674.56	5165.75
674.68	5136.25
674.80	5177.25
674.93	5149.75
675.05	5135.00
675.17	5153.00
675.29	5166.25
675.41	5162.75
675.53	5134.00
675.65	5095.25
675.77	5121.00
675.90	5155.25
676.02	5117.00
676.14	5093.25
676.26	5194.75
676.38	5220.75
676.50	5162.75
676.62	5145.00
676.74	5098.50
676.87	5111.50
676.99	5174.00
677.11	5172.25
677.23	5142.50
677.35	5122.50
677.47	5092.25
677.59	5120.25
677.71	5124.00
677.83	5162.75
677.96	5100.25
678.08	5157.75
678.20	5130.75
678.32	5086.25
678.44	5115.75
678.56	5090.00
678.68	5230.50
678.80	5155.00
678.93	5106.75
679.05	5099.00
679.17	5132.75
679.29	5140.75
679.41	5119.00
679.53	5082.50
679.65	5087.50
679.77	5075.25
679.89	5065.75
680.01	5113.75
680.14	5135.75
680.26	5010.25
680.38	5064.00
680.50	5097.00
680.62	5161.25
680.74	5110.50
680.86	5069.25
680.98	5059.00
681.10	5106.25
681.22	5186.00
681.35	5044.50
681.47	5035.00
681.59	5024.75
681.71	5170.00
681.83	5065.75
681.95	5031.50
682.07	5117.25
682.19	5101.50
682.31	5040.25
682.43	5021.25
682.56	5082.50
682.68	4990.00
682.80	5038.75
682.92	5089.00
683.04	5075.00
683.16	5016.75
683.28	5029.00
683.40	5072.50
683.52	5055.00
683.64	5063.75
683.76	5014.50
683.89	5006.75
684.01	5031.00
684.13	5094.00
684.25	5052.75
684.37	5043.25
684.49	5058.75
684.61	5020.50
684.73	5072.50
684.85	5038.00
684.97	5037.50
685.09	5104.50
685.21	4986.75
685.34	5039.50
685.46	5141.50
685.58	5019.25
685.70	5030.75
685.82	5058.75
685.94	4983.25
686.06	4975.75
686.18	4984.75
686.30	4989.00
686.42	4985.25
686.54	5039.25
686.66	4975.00
686.79	5087.00
686.91	5001.00
687.03	5106.25
687.15	5029.25
687.27	5026.25
687.39	4995.50
687.51	5044.25
687.63	5016.00
687.75	5056.25
687.87	5036.25
687.99	5064.75
688.11	4968.75
688.23	5024.50
688.35	5056.25
688.48	5024.50
688.60	5004.00
688.72	4967.00
688.84	4996.50
688.96	5022.00
689.08	5010.00
689.20	4981.25
689.32	5084.75
689.44	4987.50
689.56	4936.50
689.68	4972.75
689.80	4980.50
689.92	4952.75
690.04	4956.00
690.16	5026.50
690.28	4977.75
690.41	5000.50
690.53	4926.75
690.65	4971.00
690.77	5007.50
690.89	5017.00
691.01	4964.25
691.13	4950.75
691.25	4920.25
691.37	4936.00
691.49	4921.50
691.61	4892.25
691.73	5019.75
691.85	4990.00
691.97	4955.75
692.09	4949.25
692.21	4994.50
692.33	5021.00
692.45	4980.50
692.57	4920.75
692.70	4943.25
692.82	4957.75
692.94	4904.00
693.06	4924.75
693.18	4956.25
693.30	4937.75
693.42	4926.00
693.54	4960.75
693.66	4943.50
693.78	4945.00
693.90	4922.75
694.02	4962.50
694.14	4950.75
694.26	4953.00
694.38	4959.75
694.50	4960.75
694.62	4949.50
694.74	4896.25
694.86	4893.25
694.98	4935.75
695.10	4939.25
695.22	4953.50
695.34	4910.50
695.46	4893.75
695.58	4908.50
695.71	4910.50
695.83	4911.75
695.95	4902.50
696.07	4986.75
696.19	4868.75
696.31	4916.50
696.43	4860.75
696.55	4967.75
696.67	4926.75
696.79	4903.25
696.91	4908.25
697.03	4885.75
697.15	4999.00
697.27	4922.25
697.39	4897.75
697.51	4939.00
697.63	4857.25
697.75	4876.50
697.87	4908.50
697.99	4874.00
698.11	4840.25
698.23	4866.00
698.35	4870.75
698.47	4875.00
698.59	4892.25
698.71	4889.50
698.83	4962.75
698.95	4870.00
699.07	4901.00
699.19	4903.50
699.31	4884.50
699.43	4874.00
699.55	4916.00
699.67	4835.75
699.79	4861.75
699.91	4854.00
700.03	4878.75
700.15	4875.25
700.27	4862.00
700.39	4856.50
700.51	4828.50
700.63	4873.75
700.75	4880.75
700.87	4899.25
700.99	4862.00
701.11	4888.50
701.24	4860.75
701.36	4924.25
701.48	4919.25
701.60	4929.25
701.72	4845.75
701.84	4924.00
701.96	4874.25
702.08	4843.00
702.20	4919.75
702.32	4884.25
702.44	4889.50
702.56	4857.00
702.68	4874.00
702.80	4859.25
702.92	4968.75
703.04	4920.25
703.16	4883.75
703.28	4916.25
703.40	4831.50
703.52	4902.50
703.64	4912.75
703.76	4885.50
703.88	4823.00
704.00	4870.00
704.12	4863.75
704.24	4910.75
704.36	4883.50
704.48	4869.00
704.60	4820.00
704.72	4875.50
704.84	4850.50
704.96	4877.25
705.07	4849.25
705.19	4832.00
705.31	4858.00
705.43	4878.75
705.55	4834.25
705.67	4875.75
705.79	4863.00
705.91	4808.00
706.03	4838.00
706.15	4884.25
706.27	4886.00
706.39	4805.75
706.51	4819.75
706.63	4823.25
706.75	4886.75
706.87	4867.25
706.99	4900.75
707.11	4832.50
707.23	4833.75
707.35	4854.25
707.47	4849.75
707.59	4866.75
707.71	4895.25
707.83	4841.00
707.95	4876.25
708.07	4848.75
708.19	4966.25
708.31	4839.00
708.43	4780.25
708.55	4847.25
708.67	4896.00
708.79	4857.25
708.91	4874.00
709.03	4866.25
709.15	4885.50
709.27	4825.75
709.39	4846.50
709.51	4799.00
709.63	4849.00
709.75	4873.25
709.87	4783.75
709.99	4867.25
710.11	4804.50
710.23	4823.25
710.35	4808.75
710.47	4933.25
710.58	4885.75
710.70	4889.25
710.82	4901.25
710.94	4850.00
711.06	4817.50
711.18	4856.00
711.30	4811.75
711.42	4906.25
711.54	4835.00
711.66	4844.00
711.78	4776.50
711.90	4867.00
712.02	4912.25
712.14	4812.75
712.26	4773.75
712.38	4901.50
712.50	4878.50
712.62	4807.00
712.74	4768.75
712.86	4806.50
712.98	4869.00
713.10	4788.00
713.22	4798.50
713.34	4831.75
713.45	4786.75
713.57	4825.00
713.69	4827.75
713.81	4788.75
713.93	4806.50
714.05	4810.25
714.17	4760.50
714.29	4887.25
714.41	4890.25
714.53	4814.00
714.65	4840.00
714.77	4790.00
714.89	4771.50
715.01	4856.75
715.13	4792.50
715.25	4823.75
715.37	4768.00
715.49	4759.25
715.61	4847.75
715.72	4844.25
715.84	4843.75
715.96	4781.00
716.08	4771.00
716.20	4851.50
716.32	4851.50
716.44	4816.75
716.56	4768.75
716.68	4773.25
716.80	4897.50
716.92	4833.00
717.04	4819.75
717.16	4813.00
717.28	4752.75
717.40	4795.50
717.52	4809.75
717.63	4771.75
717.75	4781.50
717.87	4805.75
717.99	4796.25
718.11	4777.75
718.23	4832.00
718.35	4776.25
718.47	4792.00
718.59	4704.50
718.71	4755.50
718.83	4754.75
718.95	4797.50
719.07	4728.25
719.19	4728.75
719.30	4746.75
719.42	4778.50
719.54	4745.50
719.66	4764.75
719.78	4759.25
719.90	4682.00
720.02	4765.75
720.14	4756.50
720.26	4762.25
720.38	4750.00
720.50	4734.00
720.62	4683.25
720.74	4773.50
720.85	4752.00
720.97	4815.25
721.09	4864.00
721.21	4732.50
721.33	4797.75
721.45	4746.00
721.57	4763.50
721.69	4699.25
721.81	4674.00
721.93	4776.25
722.05	4764.25
722.16	4702.00
722.28	4696.50
722.40	4699.00
722.52	4763.00
722.64	4794.75
722.76	4703.75
722.88	4773.25
723.00	4739.00
723.12	4693.50
723.24	4732.50
723.36	4646.25
723.47	4729.75
723.59	4700.75
723.71	4674.75
723.83	4730.00
723.95	4699.25
724.07	4727.00
724.19	4727.25
724.31	4788.00
724.43	4682.50
724.55	4650.50
724.66	4695.25
724.78	4844.00
724.90	4650.25
725.02	4681.00
725.14	4674.25
725.26	4729.75
725.38	4640.25
725.50	4705.00
725.62	4725.00
725.74	4697.75
725.85	4703.25
725.97	4686.00
726.09	4768.75
726.21	5037.75
726.33	4757.00
726.45	4731.25
726.57	4707.75
726.69	4726.75
726.81	4710.25
726.92	4714.50
727.04	4732.25
727.16	4715.00
727.28	4690.25
727.40	4723.00
727.52	4721.00
727.64	4834.25
727.76	4794.75
727.88	4732.00
727.99	4709.25
728.11	4674.75
728.23	4690.50
728.35	4704.75
728.47	4700.75
728.59	4710.50
728.71	4705.25
728.83	4709.25
728.94	4737.75
729.06	4781.75
729.18	4747.00
729.30	4742.75
729.42	4715.25
729.54	4752.25
729.66	4793.75
729.78	4695.50
729.90	4737.50
730.01	4711.00
730.13	4635.50
730.25	4674.00
730.37	4681.50
730.49	4704.25
730.61	4705.25
730.73	4679.50
730.84	4706.50
730.96	4691.25
731.08	4711.50
731.20	4696.25
731.32	4692.25
731.44	4797.50
731.56	4664.75
731.68	4657.50
731.79	4700.25
731.91	4654.75
732.03	4663.00
732.15	4690.50
732.27	4629.75
732.39	4677.75
732.51	4707.50
732.62	4670.25
732.74	4644.75
732.86	4714.00
732.98	4661.25
733.10	4633.00
733.22	4669.75
733.34	4698.00
733.45	4611.50
733.57	4661.75
733.69	4604.50
733.81	4638.25
733.93	4636.25
734.05	4598.75
734.17	4663.50
734.28	4641.50
734.40	4662.25
734.52	4625.25
734.64	4652.25
734.76	4720.50
734.88	4654.25
735.00	4618.50
735.11	4651.00
735.23	4708.00
735.35	4609.25
735.47	4600.75
735.59	4679.75
735.71	4622.75
735.83	4639.50
735.94	4664.50
736.06	4657.25
736.18	4664.50
736.30	4659.50
736.42	4661.00
736.54	4624.75
736.65	4651.25
736.77	4770.25
736.89	4670.75
737.01	4622.25
737.13	4764.50
737.25	4567.25
737.36	4589.75
737.48	4596.00
737.60	4619.25
737.72	4586.00
737.84	4609.50
737.96	4636.75
738.08	4612.00
738.19	4700.00
738.31	4589.25
738.43	4619.00
738.55	4604.75
738.67	4607.50
738.79	4580.25
738.90	4608.50
739.02	4622.00
739.14	4569.50
739.26	4571.50
739.38	4593.25
739.50	4604.50
739.61	4566.75
739.73	4607.75
739.85	4614.25
739.97	4600.50
740.09	4624.50
740.20	4488.75
740.32	4613.00
740.44	4602.75
740.56	4541.25
740.68	4579.00
740.80	4550.50
740.91	4584.00
741.03	4606.00
741.15	4596.50
741.27	4555.50
741.39	4603.50
741.51	4564.00
741.62	4605.25
741.74	4544.25
741.86	4530.50
741.98	4540.00
742.10	4570.00
742.21	4543.75
742.33	4543.50
742.45	4525.00
742.57	4590.25
742.69	4530.50
742.80	4567.00
742.92	4514.75
743.04	4545.00
743.16	4501.75
743.28	4595.25
743.40	4492.75
743.51	4497.75
743.63	4490.50
743.75	4514.75
743.87	4530.25
743.99	4537.00
744.10	4527.75
744.22	4509.75
744.34	4485.00
744.46	4505.75
744.58	4522.25
744.69	4465.50
744.81	4511.25
744.93	4443.75
745.05	4425.75
745.17	4537.25
745.28	4519.25
745.40	4514.00
745.52	4478.50
745.64	4475.00
745.76	4512.75
745.87	4477.00
745.99	4426.75
746.11	4475.00
746.23	4419.75
746.35	4440.50
746.46	4452.25
746.58	4581.25
746.70	4469.25
746.82	4455.75
746.94	4462.00
747.05	4411.00
747.17	4372.50
747.29	4386.75
747.41	4434.50
747.53	4566.75
747.64	4417.75
747.76	4501.75
747.88	4475.75
748.00	4456.75
748.12	4441.75
748.23	4423.00
748.35	4458.00
748.47	4475.50
748.59	4448.00
748.70	4387.75
748.82	4379.75
748.94	4386.25
749.06	4389.75
749.18	4384.25
749.29	4346.75
749.41	4404.25
749.53	4363.50
749.65	4371.00
749.76	4410.25
749.88	4379.00
750.00	4385.25
750.12	4421.75
750.24	4396.50
750.35	4396.00
750.47	4319.75
750.59	4400.00
750.71	4355.00
750.82	4409.25
750.94	4321.75
751.06	4344.00
751.18	4341.75
751.30	4381.00
751.41	4382.00
751.53	4373.75
751.65	4307.25
751.77	4294.50
751.88	4357.00
752.00	4359.00
752.12	4285.50
752.24	4378.25
752.35	4347.50
752.47	4351.50
752.59	4354.75
752.71	4402.50
752.83	4295.75
752.94	4379.75
753.06	4287.00
753.18	4314.25
753.30	4275.75
753.41	4257.75
753.53	4255.75
753.65	4281.75
753.77	4334.50
753.88	4251.25
754.00	4266.00
754.12	4286.75
754.24	4328.50
754.35	4255.75
754.47	4180.25
754.59	4254.50
754.71	4267.00
754.82	4250.25
754.94	4225.50
755.06	4306.50
755.18	4229.25
755.29	4250.00
755.41	4223.50
755.53	4278.00
755.65	4209.25
755.76	4272.75
755.88	4228.25
756.00	4257.50
756.12	4201.75
756.23	4129.75
756.35	4176.75
756.47	4243.75
756.59	4185.75
756.70	4147.75
756.82	4162.75
756.94	4164.25
757.06	4198.75
757.17	4201.25
757.29	4182.00
757.41	4107.25
757.53	4202.25
757.64	4179.75
757.76	4188.25
757.88	4194.75
758.00	4191.00
758.11	4136.00
758.23	4093.00
758.35	4163.50
758.47	4122.50
758.58	4150.50
758.70	4083.75
758.82	4116.25
758.94	4091.25
759.05	4140.75
759.17	4055.25
759.29	4073.75
759.40	4148.25
759.52	4082.00
759.64	4100.75
759.76	4126.25
759.87	4117.50
759.99	4100.75
760.11	4090.00
760.23	4078.75
760.34	4091.75
760.46	4096.25
760.58	4063.75
760.70	4079.50
760.81	4100.50
760.93	4094.00
761.05	4104.00
761.16	4066.75
761.28	4032.00
761.40	4030.00
761.52	4000.00
761.63	4099.75
761.75	4035.25
761.87	3999.50
761.98	3988.00
762.10	4054.25
762.22	4003.25
762.34	4046.75
762.45	4015.00
762.57	4051.25
762.69	4111.00
762.81	3999.50
762.92	4003.75
763.04	3944.25
763.16	4023.00
763.27	4026.00
763.39	3961.50
763.51	4002.50
763.63	4002.25
763.74	3958.00
763.86	3905.50
763.98	3938.25
764.09	3923.00
764.21	3973.00
764.33	3902.25
764.44	3910.50
764.56	3913.75
764.68	3917.50
764.80	3958.50
764.91	3887.75
765.03	3986.50
765.15	3942.75
765.26	3933.00
765.38	3865.25
765.50	3935.00
765.62	3919.75
765.73	3912.25
765.85	3900.25
765.97	3864.00
766.08	3896.25
766.20	3908.50
766.32	3907.00
766.43	3936.75
766.55	3943.50
766.67	3853.25
766.79	3872.25
766.90	3857.50
767.02	3847.50
767.14	3830.00
767.25	3802.75
767.37	3942.75
767.49	3858.75
767.60	3855.50
767.72	3881.75
767.84	3856.50
767.95	3837.75
768.07	3822.50
768.19	3862.00
768.31	3828.25
768.42	3838.50
768.54	3826.75
768.66	3829.25
768.77	3809.75
768.89	3797.25
769.01	3762.25
769.12	3835.00
769.24	3793.25
769.36	3743.75
769.47	3750.75
769.59	3741.00
769.71	3788.50
769.82	3782.00
769.94	3748.50
770.06	3711.75
770.17	3788.75
770.29	3757.75
770.41	3798.25
770.53	3778.00
770.64	3701.75
770.76	3736.50
770.88	3751.50
770.99	3777.75
771.11	3705.25
771.23	3745.00
771.34	3735.00
771.46	3799.75
771.58	3775.00
771.69	3746.50
771.81	3702.00
771.93	3749.25
772.04	3664.00
772.16	3728.75
772.28	3703.00
772.39	3756.00
772.51	3689.25
772.63	3698.75
772.74	3658.00
772.86	3669.25
772.98	3786.50
773.09	3640.75
773.21	3659.50
773.33	3690.75
773.44	3673.50
773.56	3625.00
773.68	3641.00
773.79	3684.50
773.91	3626.00
774.03	3630.75
774.14	3632.75
774.26	3665.00
774.38	3582.25
774.49	3552.50
774.61	3588.25
774.73	3601.25
774.84	3583.00
774.96	3559.50
775.08	3594.00
775.19	3588.50
775.31	3629.75
775.43	3598.50
775.54	3568.00
775.66	3526.25
775.77	3623.00
775.89	3523.75
776.01	3598.75
776.12	3608.50
776.24	3561.00
776.36	3496.00
776.47	3519.25
776.59	3537.25
776.71	3566.00
776.82	3476.50
776.94	3505.00
777.06	3497.75
777.17	3582.00
777.29	3478.25
777.41	3484.00
777.52	3525.75
777.64	3497.75
777.75	3541.25
777.87	3461.00
777.99	3473.75
778.10	3517.00
778.22	3465.25
778.34	3491.50
778.45	3472.00
778.57	3521.50
778.69	3500.75
778.80	3448.00
778.92	3551.25
779.04	3472.75
779.15	3453.25
779.27	3493.00
779.38	3487.00
779.50	3487.75
779.62	3393.00
779.73	3413.25
779.85	3376.75
779.97	3520.00
780.08	3425.00
780.20	3414.00
780.31	3443.00
780.43	3420.50
780.55	3388.00
780.66	3384.00
780.78	3433.25
780.90	3470.25
781.01	3357.00
781.13	3379.50
781.25	3348.50
781.36	3391.50
781.48	3323.50
781.59	3350.25
781.71	3376.50
781.83	3376.50
781.94	3328.25
782.06	3315.50
782.18	3380.75
782.29	3327.00
782.41	3279.75
782.52	3376.00
782.64	3367.00
782.76	3315.75
782.87	3341.75
782.99	3301.00
783.10	3435.00
783.22	3429.50
783.34	3301.75
783.45	3292.50
783.57	3288.50
783.69	3263.25
783.80	3292.50
783.92	3312.25
784.03	3280.25
784.15	3234.25
784.27	3268.25
784.38	3218.50
784.50	3262.75
784.61	3277.25
784.73	3225.00
784.85	3248.50
784.96	3215.00
785.08	3276.00
785.19	3272.00
785.31	3257.00
785.43	3198.75
785.54	3176.25
785.66	3241.75
785.77	3229.25
785.89	3232.25
786.01	3173.75
786.12	3204.25
786.24	3226.00
786.35	3258.50
786.47	3195.50
786.59	3194.00
786.70	3153.00
786.82	3197.25
786.93	3172.00
787.05	3182.50
787.17	3187.00
787.28	3170.75
787.40	3165.75
787.51	3189.50
787.63	3170.25
787.75	3115.00
787.86	3175.00
787.98	3151.25
788.09	3141.25
788.21	3190.75
788.33	3166.75
788.44	3157.25
788.56	3109.00
788.67	3143.00
788.79	3099.75
788.91	3117.00
789.02	3107.75
789.14	3099.50
789.25	3175.00
789.37	3127.50
789.48	3083.25
789.60	3109.00
789.72	3061.25
789.83	3103.00
789.95	3106.50
790.06	3046.00
790.18	3040.75
790.30	3080.75
790.41	3066.50
790.53	3040.25
790.64	3021.50
790.76	3017.00
790.87	3034.25
790.99	3038.25
791.11	3043.75
791.22	3021.75
791.34	3046.00
791.45	3082.75
791.57	3034.75
791.68	3024.50
791.80	2981.50
791.92	3052.75
792.03	2990.25
792.15	2959.00
792.26	2981.75
792.38	2978.50
792.49	3010.75
792.61	2979.75
792.73	2990.00
792.84	2984.25
792.96	3080.25
793.07	2957.00
793.19	3714.25
793.30	3057.25
793.42	2997.75
793.54	2889.50
793.65	2918.25
793.77	3105.25
793.88	2953.75
794.00	2906.25
794.11	2983.25
794.23	2896.00
794.34	2940.50
794.46	2883.25
794.58	2881.25
794.69	3021.25
794.81	2997.00
794.92	2907.25
795.04	2875.50
795.15	2990.25
795.27	2951.00
795.39	2943.25
795.50	2884.25
795.62	2867.50
795.73	2891.75
795.85	2872.25
795.96	2892.00
796.08	2925.00
796.19	2852.00
796.31	2877.25
796.42	2835.25
796.54	2860.00
796.66	2896.25
796.77	2818.25
796.89	2791.75
797.00	2904.75
797.12	2780.50
797.23	2839.25
797.35	2866.50
797.46	2870.50
797.58	2891.25
797.69	2856.75
797.81	2838.25
797.93	2807.75
798.04	2797.75
798.16	2806.00
798.27	2824.25
798.39	2777.25
798.50	2765.50
798.62	2766.75
798.73	2760.25
798.85	2885.75
798.96	2785.75
799.08	2808.25
799.19	2799.25
799.31	2780.00
799.43	2758.25
799.54	2756.75
799.66	2792.50
799.77	2796.75
799.89	2718.00
800.00	2708.75
800.12	2753.25
800.23	2788.50
800.35	2827.75
800.46	2683.75
800.58	2663.00
800.69	2747.75
800.81	2719.25
800.92	2694.75
801.04	2731.25
801.16	2663.50
801.27	2667.50
801.39	2678.25
801.50	2687.75
801.62	2695.75
801.73	2730.25
801.85	2742.50
801.96	2655.25
802.08	2745.00
802.19	2725.25
802.31	2672.00
802.42	2679.50
802.54	2745.75
802.65	2728.50
802.77	2636.00
802.88	2704.75
803.00	2626.50
803.11	2757.50
803.23	2675.50
803.34	2656.00
803.46	2677.50
803.57	2617.00
803.69	2682.50
803.80	2616.25
803.92	2696.25
804.03	2629.75
804.15	2649.25
804.26	2665.50
804.38	2669.25
804.50	2610.75
804.61	2623.00
804.73	2627.75
804.84	2639.25
804.96	2553.50
805.07	2595.00
805.19	2573.25
805.30	2590.00
805.42	2630.00
805.53	2581.25
805.65	2527.00
805.76	2512.75
805.88	2532.00
805.99	2544.75
806.11	2560.25
806.22	2500.50
806.34	2497.00
806.45	2508.00
806.57	2478.00
806.68	2517.25
806.80	2413.25
806.91	2450.75
807.03	2421.25
807.14	2387.00
807.26	2394.50
807.37	2391.25
807.49	2445.00
807.60	2391.00
807.72	2463.75
807.83	2454.75
807.95	2396.00
808.06	2400.75
808.17	2399.00
808.29	2410.00
808.40	2330.75
808.52	2342.25
808.63	2337.00
808.75	2327.75
808.86	2315.00
808.98	2320.75
809.09	2250.75
809.21	2298.25
809.32	2236.25
809.44	2288.25
809.55	2204.50
809.67	2255.50
809.78	2206.25
809.90	2255.00
810.01	2260.25
810.13	2189.75
810.24	2224.75
810.36	2129.75
810.47	2146.25
810.59	2159.75
810.70	2174.00
810.82	2180.25
810.93	2086.00
811.05	2090.00
811.16	2082.75
811.27	2057.25
811.39	2082.00
811.50	2115.00
811.62	2007.50
811.73	1997.25
811.85	2063.75
811.96	2025.25
812.08	2038.00
812.19	1997.50
812.31	2001.25
812.42	1992.25
812.54	1958.00
812.65	2009.75
812.77	2006.75
812.88	1973.25
813.00	1980.50
813.11	1956.75
813.22	1899.50
813.34	1898.50
813.45	1909.25
813.57	1960.50
813.68	1957.25
813.80	1862.50
813.91	1834.50
814.03	1837.00
814.14	1916.75
814.26	1808.75
814.37	1817.25
814.49	1796.75
814.60	1769.75
814.71	1768.50
814.83	1780.50
814.94	1727.25
815.06	1742.00
815.17	1738.50
815.29	1723.50
815.40	1689.75
815.52	1796.75
815.63	1695.75
815.75	1674.50
815.86	1690.50
815.97	1633.00
816.09	1680.50
816.20	1676.50
816.32	1662.50
816.43	1582.75
816.55	1648.75
816.66	1605.50
816.78	1703.25
816.89	1593.00
817.00	1591.00
817.12	1564.25
817.23	1547.75
817.35	1602.25
817.46	1563.25
817.58	1520.50
817.69	1664.25
817.81	1528.75
817.92	1560.25
818.03	1525.50
818.15	1507.75
818.26	1463.25
818.38	1446.00
818.49	1469.75
818.61	1474.75
818.72	1419.00
818.83	2259.00
818.95	1538.50
819.06	1406.00
819.18	1402.25
819.29	1420.00
819.41	1399.50
819.52	1412.75
819.64	1391.50
819.75	1350.75
819.86	1326.00
819.98	1331.25
820.09	1355.25
820.21	1339.50
820.32	1291.50
820.44	1329.75
820.55	1369.75
820.66	1280.50
820.78	1327.00
820.89	1277.00
821.01	1306.25
821.12	1286.25
821.23	1269.25
821.35	1233.75
821.46	1283.00
821.58	1232.50
821.69	1220.00
821.81	1192.50
821.92	1254.75
822.03	1188.50
822.15	1201.75
822.26	1153.75
822.38	1145.25
822.49	1196.50
822.61	1175.50
822.72	1170.00
822.83	1182.00
822.95	1131.25
823.06	1138.00
823.18	1173.75
823.29	1181.25
823.40	1136.50
823.52	1099.25
823.63	1056.75
823.75	1173.75
823.86	1073.25
823.97	1036.75
824.09	1092.50
824.20	1024.25
824.32	1069.00
824.43	1040.25
824.55	1078.75
824.66	1113.25
824.77	1019.75
824.89	1035.50
825.00	1072.25
825.12	1007.50
825.23	1030.50
825.34	958.00
825.46	957.25
825.57	1015.00
825.69	955.25
825.80	903.00
825.91	931.75
826.03	898.75
826.14	964.00
826.26	911.75
826.37	934.00
826.48	907.75
826.60	920.00
826.71	884.50
826.83	910.75
826.94	922.25
827.05	953.25
827.17	933.25
827.28	874.50
827.39	864.50
827.51	839.50
827.62	868.50
827.74	865.25
827.85	848.25
827.96	832.50
828.08	847.25
828.19	937.50
828.31	841.25
828.42	805.75
828.53	866.00
828.65	878.75
828.76	889.25
828.87	858.50
828.99	806.50
