Wavelength (nm)	Intensity
377.35	818.00
377.48	577.50
377.62	608.50
377.75	605.50
377.88	800.50
378.02	784.00
378.15	790.00
378.28	773.50
378.41	840.50
378.55	802.00
378.68	792.50
378.81	767.50
378.95	792.00
379.08	777.50
379.21	745.00
379.35	812.50
379.48	804.50
379.61	875.50
379.74	824.00
379.88	812.50
380.01	879.50
380.14	925.00
380.28	862.50
380.41	808.00
380.54	837.50
380.68	847.50
380.81	778.50
380.94	854.50
381.07	893.00
381.21	898.00
381.34	831.00
381.47	773.00
381.61	969.50
381.74	843.50
381.87	795.00
382.00	858.00
382.14	920.00
382.27	846.50
382.40	807.50
382.54	894.50
382.67	902.00
382.80	802.00
382.93	801.50
383.07	833.50
383.20	828.50
383.33	862.50
383.47	821.50
383.60	790.00
383.73	954.50
383.86	860.50
384.00	837.50
384.13	814.00
384.26	868.50
384.40	896.00
384.53	848.00
384.66	887.00
384.79	859.50
384.93	828.50
385.06	841.50
385.19	851.00
385.33	946.00
385.46	859.50
385.59	829.50
385.72	869.00
385.86	806.00
385.99	820.00
386.12	845.00
386.25	816.50
386.39	874.00
386.52	893.50
386.65	843.50
386.79	837.00
386.92	828.00
387.05	915.00
387.18	797.00
387.32	813.50
387.45	876.00
387.58	860.50
387.71	849.00
387.85	823.50
387.98	857.50
388.11	873.50
388.25	859.50
388.38	862.50
388.51	878.50
388.64	882.50
388.78	845.00
388.91	811.00
389.04	847.00
389.17	944.50
389.31	864.50
389.44	880.50
389.57	899.50
389.70	884.00
389.84	841.00
389.97	834.50
390.10	832.00
390.24	882.50
390.37	847.50
390.50	831.50
390.63	926.50
390.77	865.50
390.90	869.50
391.03	854.00
391.16	804.50
391.30	828.00
391.43	843.50
391.56	836.50
391.69	821.50
391.83	898.50
391.96	863.50
392.09	841.00
392.22	924.00
392.36	880.00
392.49	835.50
392.62	844.50
392.75	880.50
392.89	920.00
393.02	839.00
393.15	841.00
393.28	806.00
393.42	944.00
393.55	825.50
393.68	847.50
393.81	795.00
393.95	856.00
394.08	847.50
394.21	848.50
394.34	916.00
394.48	898.00
394.61	898.50
394.74	891.00
394.87	912.50
395.01	882.50
395.14	898.50
395.27	839.00
395.40	952.00
395.54	950.50
395.67	869.50
395.80	858.50
395.93	892.00
396.07	843.00
396.20	849.00
396.33	801.00
396.46	842.50
396.59	864.00
396.73	861.50
396.86	840.50
396.99	918.00
397.12	887.00
397.26	880.50
397.39	872.50
397.52	1137.00
397.65	977.50
397.79	870.00
397.92	869.00
398.05	913.50
398.18	849.50
398.32	870.50
398.45	897.00
398.58	888.00
398.71	884.50
398.84	840.00
398.98	878.50
399.11	908.00
399.24	892.50
399.37	868.00
399.51	841.50
399.64	880.50
399.77	877.50
399.90	881.00
400.03	876.50
400.17	825.50
400.30	931.50
400.43	909.50
400.56	883.00
400.70	881.50
400.83	853.00
400.96	855.00
401.09	896.00
401.23	892.50
401.36	941.00
401.49	882.50
401.62	894.50
401.75	883.00
401.89	853.00
402.02	880.50
402.15	884.50
402.28	908.50
402.41	907.00
402.55	885.50
402.68	877.00
402.81	956.00
402.94	938.00
403.08	876.00
403.21	857.50
403.34	927.00
403.47	929.00
403.60	885.00
403.74	908.50
403.87	929.00
404.00	872.50
404.13	880.50
404.26	866.00
404.40	868.50
404.53	901.00
404.66	884.00
404.79	859.00
404.93	936.50
405.06	918.50
405.19	853.00
405.32	915.50
405.45	921.00
405.59	935.00
405.72	911.00
405.85	869.00
405.98	1057.00
406.11	877.50
406.25	878.00
406.38	883.50
406.51	929.00
406.64	894.00
406.77	861.50
406.91	851.00
407.04	934.00
407.17	898.50
407.30	924.00
407.43	903.50
407.57	984.50
407.70	955.00
407.83	896.50
407.96	907.00
408.09	876.50
408.23	985.00
408.36	908.50
408.49	904.00
408.62	1014.50
408.75	925.00
408.89	905.00
409.02	941.00
409.15	931.50
409.28	980.50
409.41	949.00
409.55	910.50
409.68	1038.50
409.81	926.50
409.94	893.50
410.07	928.50
410.20	932.50
410.34	923.00
410.47	919.50
410.60	922.50
410.73	954.00
410.86	895.50
411.00	941.50
411.13	897.00
411.26	943.50
411.39	930.50
411.52	929.00
411.66	909.50
411.79	914.50
411.92	892.00
412.05	930.00
412.18	923.50
412.31	939.00
412.45	954.00
412.58	965.50
412.71	908.00
412.84	957.00
412.97	998.00
413.11	935.50
413.24	946.50
413.37	974.50
413.50	1036.50
413.63	950.00
413.76	919.50
413.90	976.00
414.03	921.50
414.16	911.00
414.29	957.50
414.42	940.00
414.56	1041.50
414.69	932.00
414.82	944.50
414.95	938.00
415.08	959.00
415.21	936.00
415.35	957.50
415.48	864.50
415.61	984.50
415.74	983.50
415.87	908.00
416.00	952.50
416.14	1048.00
416.27	951.50
416.40	922.00
416.53	955.50
416.66	976.00
416.79	959.50
416.93	924.00
417.06	1006.50
417.19	951.00
417.32	945.50
417.45	929.50
417.58	908.50
417.72	989.50
417.85	922.00
417.98	938.50
418.11	990.00
418.24	936.00
418.37	950.50
418.51	971.50
418.64	960.50
418.77	1029.50
418.90	977.50
419.03	922.00
419.16	968.50
419.29	997.00
419.43	937.50
419.56	921.00
419.69	1074.00
419.82	1015.00
419.95	956.00
420.08	1002.00
420.22	1035.50
420.35	1089.50
420.48	998.00
420.61	960.50
420.74	914.00
420.87	993.50
421.00	929.50
421.14	971.50
421.27	1003.50
421.40	1028.00
421.53	999.00
421.66	975.00
421.79	980.00
421.93	970.00
422.06	977.50
422.19	950.50
422.32	1010.00
422.45	1008.50
422.58	993.00
422.71	978.50
422.85	1026.50
422.98	1008.50
423.11	936.00
423.24	920.50
423.37	947.50
423.50	960.50
423.63	992.50
423.77	975.00
423.90	955.00
424.03	1019.50
424.16	1016.00
424.29	991.00
424.42	934.50
424.55	952.50
424.69	966.00
424.82	992.00
424.95	990.00
425.08	960.00
425.21	1017.50
425.34	973.00
425.47	986.00
425.60	999.00
425.74	944.00
425.87	976.50
426.00	995.50
426.13	1007.00
426.26	959.00
426.39	986.00
426.52	994.00
426.66	1063.00
426.79	1028.00
426.92	960.50
427.05	1102.50
427.18	1068.50
427.31	998.00
427.44	995.00
427.57	972.50
427.71	1009.00
427.84	992.50
427.97	1010.00
428.10	1055.00
428.23	1008.00
428.36	981.00
428.49	932.50
428.62	1143.50
428.76	1113.00
428.89	1026.50
429.02	974.50
429.15	1001.00
429.28	1104.50
429.41	1006.50
429.54	1007.00
429.67	993.00
429.81	1052.50
429.94	1016.50
430.07	994.50
430.20	1059.50
430.33	1080.50
430.46	990.50
430.59	997.50
430.72	1019.50
430.85	979.00
430.99	1029.50
431.12	988.50
431.25	1063.00
431.38	1091.50
431.51	1033.00
431.64	1030.50
431.77	1096.00
431.90	1104.50
432.03	1042.50
432.17	1005.50
432.30	1049.50
432.43	1068.00
432.56	1028.50
432.69	1079.50
432.82	1060.50
432.95	1086.00
433.08	1043.00
433.21	1056.50
433.35	1044.50
433.48	1031.00
433.61	1000.50
433.74	1047.50
433.87	1012.00
434.00	1071.50
434.13	1012.50
434.26	1073.00
434.39	1076.00
434.53	1076.50
434.66	1042.50
434.79	1042.50
434.92	1034.50
435.05	1106.50
435.18	1042.50
435.31	1084.50
435.44	1116.50
435.57	1067.00
435.70	1051.00
435.84	1025.50
435.97	1123.00
436.10	1172.00
436.23	1038.50
436.36	1027.50
436.49	1057.50
436.62	1084.00
436.75	1044.50
436.88	1079.00
437.01	1026.00
437.14	1040.00
437.28	1007.50
437.41	1054.00
437.54	1121.50
437.67	1088.50
437.80	1039.50
437.93	1012.50
438.06	1165.00
438.19	1122.50
438.32	1045.00
438.45	1045.50
438.58	1079.00
438.72	1134.00
438.85	1107.50
438.98	1068.50
439.11	1093.00
439.24	1163.50
439.37	1141.50
439.50	1112.50
439.63	1125.00
439.76	1054.00
439.89	1059.00
440.02	1078.00
440.15	1095.00
440.29	1166.00
440.42	1091.00
440.55	1095.00
440.68	1161.50
440.81	1213.00
440.94	1101.50
441.07	1096.50
441.20	1183.00
441.33	1124.50
441.46	1082.50
441.59	1085.00
441.72	1097.00
441.85	1093.50
441.99	1136.00
442.12	1134.50
442.25	1186.50
442.38	1132.50
442.51	1130.50
442.64	1064.50
442.77	1115.50
442.90	1092.00
443.03	1074.00
443.16	1090.50
443.29	1105.00
443.42	1192.50
443.55	1107.50
443.68	1118.50
443.82	1081.00
443.95	1102.00
444.08	1114.00
444.21	1102.00
444.34	1087.00
444.47	1123.50
444.60	1119.50
444.73	1131.00
444.86	1124.00
444.99	1173.00
445.12	1161.00
445.25	1153.50
445.38	1129.00
445.51	1158.50
445.64	1139.50
445.78	1110.00
445.91	1077.50
446.04	1245.00
446.17	1172.00
446.30	1087.00
446.43	1169.50
446.56	1146.00
446.69	1110.50
446.82	1120.00
446.95	1178.50
447.08	1213.50
447.21	1157.00
447.34	1145.50
447.47	1191.00
447.60	1198.00
447.73	1155.00
447.86	1194.50
447.99	1164.00
448.13	1168.50
448.26	1203.00
448.39	1151.00
448.52	1201.50
448.65	1200.00
448.78	1166.50
448.91	1155.50
449.04	1191.00
449.17	1173.50
449.30	1191.50
449.43	1195.00
449.56	1186.50
449.69	1226.50
449.82	1168.00
449.95	1127.50
450.08	1234.00
450.21	1209.00
450.34	1183.50
450.47	1180.50
450.60	1214.00
450.73	1181.50
450.87	1167.50
451.00	1212.50
451.13	1234.50
451.26	1336.50
451.39	1170.50
451.52	1200.00
451.65	1182.50
451.78	1184.50
451.91	1176.00
452.04	1176.00
452.17	1276.50
452.30	1283.00
452.43	1177.00
452.56	1190.00
452.69	1256.00
452.82	1170.50
452.95	1242.50
453.08	1168.50
453.21	1146.50
453.34	1256.50
453.47	1198.50
453.60	1253.50
453.73	1305.50
453.86	1255.50
453.99	1243.50
454.12	1236.50
454.25	1214.50
454.38	1246.00
454.52	1197.50
454.65	1224.00
454.78	1216.50
454.91	1184.00
455.04	1206.50
455.17	1207.50
455.30	1232.50
455.43	1288.00
455.56	1233.00
455.69	1200.50
455.82	1267.50
455.95	1265.00
456.08	1209.00
456.21	1215.00
456.34	1219.00
456.47	1203.50
456.60	1247.50
456.73	1227.00
456.86	1257.50
456.99	1289.00
457.12	1232.00
457.25	1242.00
457.38	1320.00
457.51	1308.50
457.64	1271.50
457.77	1246.50
457.90	1265.00
458.03	1281.00
458.16	1260.00
458.29	1261.00
458.42	1290.50
458.55	1249.50
458.68	1261.00
458.81	1282.00
458.94	1358.00
459.07	1389.00
459.20	1249.00
459.33	1282.00
459.46	1363.50
459.59	1399.50
459.72	1380.00
459.85	1304.00
459.98	1381.00
460.11	1344.00
460.24	1327.50
460.37	1292.00
460.50	1347.50
460.63	1312.50
460.76	1325.00
460.89	1334.00
461.02	1346.00
461.15	1368.50
461.28	1326.00
461.41	1332.50
461.54	1397.50
461.67	1320.00
461.80	1358.50
461.93	1395.50
462.06	1364.50
462.19	1411.00
462.32	1345.00
462.45	1334.00
462.58	1375.00
462.71	1352.00
462.84	1357.00
462.97	1303.00
463.10	1364.50
463.23	1381.00
463.36	1405.50
463.49	1381.00
463.62	1344.00
463.75	1399.50
463.88	1363.00
464.01	1404.00
464.14	1360.50
464.27	1467.50
464.40	1388.50
464.53	1405.00
464.66	1439.00
464.79	1426.50
464.92	1415.50
465.05	1404.00
465.18	1406.00
465.31	1423.50
465.44	1407.00
465.57	1385.00
465.70	1397.50
465.83	1525.00
465.96	1458.00
466.09	1426.00
466.22	1500.00
466.35	1463.50
466.48	1428.50
466.61	1436.00
466.74	1438.50
466.87	1511.00
467.00	1513.00
467.13	1489.00
467.26	1502.50
467.39	1441.50
467.52	1433.00
467.65	1482.00
467.78	1549.00
467.91	1497.00
468.04	1509.00
468.17	1460.00
468.30	1489.50
468.43	1466.50
468.56	1458.00
468.69	1509.00
468.82	1530.50
468.95	1486.50
469.08	1502.00
469.21	1531.00
469.34	1554.00
469.47	1639.50
469.60	1608.50
469.73	1543.50
469.86	1562.50
469.99	1599.00
470.11	1531.50
470.24	1566.50
470.37	1598.00
470.50	1587.00
470.63	1553.00
470.76	1576.00
470.89	1645.00
471.02	1700.50
471.15	1601.00
471.28	1603.50
471.41	1691.50
471.54	1648.50
471.67	1613.00
471.80	1559.00
471.93	1677.00
472.06	1663.00
472.19	1631.00
472.32	1602.50
472.45	1760.00
472.58	1705.50
472.71	1670.00
472.84	1638.50
472.97	1634.00
473.10	1642.00
473.23	1729.50
473.36	1653.00
473.49	1736.00
473.62	1742.50
473.74	1708.00
473.87	1744.50
474.00	1673.00
474.13	1689.00
474.26	1738.50
474.39	1743.00
474.52	1741.00
474.65	1720.50
474.78	1770.00
474.91	1719.50
475.04	1755.00
475.17	1868.00
475.30	1780.50
475.43	1788.50
475.56	1823.50
475.69	1778.00
475.82	1812.50
475.95	1751.00
476.08	1871.50
476.21	1803.50
476.34	1860.50
476.46	1865.50
476.59	1892.50
476.72	1835.50
476.85	1840.00
476.98	1797.00
477.11	1885.50
477.24	1864.50
477.37	1813.00
477.50	1869.00
477.63	1892.00
477.76	1860.50
477.89	1831.50
478.02	1844.00
478.15	1915.50
478.28	1901.50
478.41	1936.00
478.54	1915.00
478.66	1978.00
478.79	1910.00
478.92	1938.50
479.05	1962.50
479.18	1950.00
479.31	1931.50
479.44	1950.50
479.57	1957.00
479.70	1975.50
479.83	1997.00
479.96	1984.00
480.09	2018.00
480.22	2148.00
480.35	2138.00
480.48	2052.50
480.60	2035.50
480.73	2009.00
480.86	2051.50
480.99	2053.00
481.12	2046.50
481.25	2062.00
481.38	2119.00
481.51	2061.00
481.64	2073.50
481.77	2129.50
481.90	2071.00
482.03	2097.00
482.16	2106.00
482.29	2160.50
482.41	2130.00
482.54	2147.00
482.67	2114.00
482.80	2107.00
482.93	2191.00
483.06	2138.50
483.19	2223.50
483.32	2207.50
483.45	2178.00
483.58	2176.50
483.71	2174.00
483.84	2230.00
483.97	2219.00
484.09	2211.50
484.22	2222.50
484.35	2197.00
484.48	2176.00
484.61	2215.00
484.74	2248.50
484.87	2257.50
485.00	2205.50
485.13	2267.00
485.26	2231.00
485.39	2285.00
485.52	2268.50
485.64	2361.00
485.77	2302.50
485.90	2347.00
486.03	2288.50
486.16	2303.50
486.29	2270.50
486.42	2308.50
486.55	2328.00
486.68	2303.50
486.81	2351.00
486.94	2369.00
487.06	2338.00
487.19	2400.00
487.32	2393.00
487.45	2363.50
487.58	2371.50
487.71	2386.00
487.84	2326.50
487.97	2416.00
488.10	2447.50
488.23	2385.00
488.35	2342.00
488.48	2387.50
488.61	2376.00
488.74	2410.50
488.87	2442.00
489.00	2468.00
489.13	2546.00
489.26	2485.50
489.39	2495.00
489.52	2518.00
489.64	2477.50
489.77	2471.50
489.90	2479.50
490.03	2477.00
490.16	2471.00
490.29	2482.50
490.42	2501.00
490.55	2498.50
490.68	2445.00
490.81	2518.50
490.93	2474.00
491.06	2578.50
491.19	2530.00
491.32	2522.50
491.45	2575.00
491.58	2522.00
491.71	2572.00
491.84	2547.50
491.97	2553.00
492.09	2658.50
492.22	2611.00
492.35	2608.00
492.48	2627.00
492.61	2624.00
492.74	2587.50
492.87	2645.00
493.00	2580.50
493.12	2593.00
493.25	2638.00
493.38	2623.50
493.51	2635.50
493.64	2593.00
493.77	2645.50
493.90	2677.00
494.03	2673.50
494.16	2699.00
494.28	2729.50
494.41	2673.50
494.54	2666.00
494.67	2779.50
494.80	2757.50
494.93	2681.00
495.06	2730.50
495.19	2719.50
495.31	2707.00
495.44	2689.00
495.57	2702.50
495.70	2740.50
495.83	2734.00
495.96	2717.00
496.09	2760.50
496.22	2792.50
496.34	2847.00
496.47	2759.50
496.60	2790.00
496.73	2801.50
496.86	2801.50
496.99	2758.50
497.12	2754.50
497.24	2746.00
497.37	2799.00
497.50	2780.00
497.63	2771.50
497.76	2803.00
497.89	2865.50
498.02	2867.00
498.15	2755.50
498.27	2842.50
498.40	2888.00
498.53	2908.00
498.66	2847.00
498.79	2876.50
498.92	2802.50
499.05	2877.50
499.17	2907.50
499.30	2936.50
499.43	2943.00
499.56	2918.50
499.69	2841.50
499.82	2913.50
499.95	2890.50
500.07	2854.00
500.20	2901.50
500.33	2936.00
500.46	3051.00
500.59	2939.00
500.72	2927.00
500.85	3013.50
500.97	2986.50
501.10	2986.50
501.23	2914.00
501.36	2955.50
501.49	3015.00
501.62	3012.50
501.75	2984.50
501.87	3033.50
502.00	2932.50
502.13	3011.00
502.26	3016.00
502.39	2971.00
502.52	2954.00
502.64	2950.00
502.77	2989.00
502.90	3042.00
503.03	3037.50
503.16	3004.50
503.29	3004.50
503.42	3095.50
503.54	3049.50
503.67	3067.00
503.80	3051.00
503.93	3106.00
504.06	3015.00
504.19	3064.50
504.31	3108.50
504.44	3080.50
504.57	3110.00
504.70	3089.00
504.83	3035.50
504.96	3099.50
505.08	3086.00
505.21	3113.50
505.34	3202.00
505.47	3161.00
505.60	3142.50
505.73	3158.00
505.85	3152.00
505.98	3267.00
506.11	3143.00
506.24	3127.00
506.37	3136.00
506.50	3134.00
506.62	3202.00
506.75	3143.00
506.88	3131.50
507.01	3180.00
507.14	3133.50
507.27	3169.00
507.39	3141.50
507.52	3181.50
507.65	3170.00
507.78	3253.00
507.91	3176.00
508.04	3329.50
508.16	3280.00
508.29	3251.50
508.42	3226.00
508.55	3213.50
508.68	3208.50
508.81	3298.00
508.93	3239.50
509.06	3242.00
509.19	3287.50
509.32	3320.00
509.45	3278.00
509.57	3306.50
509.70	3242.00
509.83	3277.50
509.96	3272.50
510.09	3281.00
510.22	3272.50
510.34	3311.00
510.47	3294.50
510.60	3373.50
510.73	3341.50
510.86	3342.50
510.98	3330.00
511.11	3319.50
511.24	3398.50
511.37	3373.50
511.50	3353.00
511.63	3348.00
511.75	3353.50
511.88	3369.00
512.01	3417.50
512.14	3382.00
512.27	3377.00
512.39	3382.50
512.52	3361.50
512.65	3376.50
512.78	3344.00
512.91	3393.00
513.03	3408.00
513.16	3450.50
513.29	3417.00
513.42	3410.50
513.55	3367.00
513.67	3401.00
513.80	3378.00
513.93	3397.00
514.06	3409.50
514.19	3474.00
514.31	3472.50
514.44	3518.50
514.57	3453.50
514.70	3484.50
514.83	3512.50
514.95	3454.00
515.08	3492.00
515.21	3489.00
515.34	3449.00
515.47	3495.50
515.59	3457.00
515.72	3512.00
515.85	3503.50
515.98	3568.50
516.11	3529.00
516.23	3579.50
516.36	3588.50
516.49	3539.00
516.62	3520.00
516.75	3603.50
516.87	3621.00
517.00	3510.50
517.13	3602.50
517.26	3622.50
517.39	3576.00
517.51	3504.50
517.64	3604.00
517.77	3622.00
517.90	3546.00
518.02	3585.00
518.15	3551.00
518.28	3514.50
518.41	3584.50
518.54	3609.00
518.66	3651.50
518.79	3575.50
518.92	3580.50
519.05	3614.00
519.18	3633.50
519.30	3647.00
519.43	3550.00
519.56	3628.00
519.69	3630.50
519.81	3672.00
519.94	3637.50
520.07	3563.50
520.20	3645.50
520.33	3702.00
520.45	3740.00
520.58	3709.50
520.71	3728.00
520.84	3741.50
520.96	3701.50
521.09	3699.50
521.22	3708.00
521.35	3747.00
521.48	3779.00
521.60	3710.00
521.73	3708.00
521.86	3758.50
521.99	3785.50
522.11	3750.00
522.24	3751.50
522.37	3777.50
522.50	3762.00
522.62	3781.50
522.75	3704.00
522.88	3757.50
523.01	3738.00
523.14	3761.50
523.26	3776.50
523.39	3830.50
523.52	3716.50
523.65	3860.50
523.77	3779.00
523.90	3823.00
524.03	3781.00
524.16	3757.50
524.28	3748.50
524.41	3794.00
524.54	3824.00
524.67	3760.00
524.79	3825.50
524.92	3829.50
525.05	3849.00
525.18	3809.00
525.31	3869.50
525.43	3794.50
525.56	3936.00
525.69	3851.50
525.82	3789.00
525.94	3921.00
526.07	3876.00
526.20	3874.50
526.33	3881.50
526.45	3936.50
526.58	3939.50
526.71	3867.00
526.84	3853.50
526.96	3913.00
527.09	3863.00
527.22	3843.00
527.35	3860.50
527.47	3838.00
527.60	3938.00
527.73	3852.50
527.86	3951.50
527.98	3882.00
528.11	3904.00
528.24	3889.00
528.37	3871.00
528.49	3844.00
528.62	3940.50
528.75	3956.00
528.88	3892.50
529.00	3923.00
529.13	3953.00
529.26	3904.50
529.39	3979.00
529.51	4079.00
529.64	4049.50
529.77	3924.00
529.90	3905.50
530.02	3972.50
530.15	3932.00
530.28	3910.00
530.40	3950.00
530.53	3957.50
530.66	3971.50
530.79	3976.00
530.91	3956.50
531.04	3958.50
531.17	3974.50
531.30	4002.50
531.42	3985.00
531.55	4041.50
531.68	4065.00
531.81	4001.00
531.93	3988.00
532.06	4024.50
532.19	3965.50
532.31	4017.50
532.44	4048.00
532.57	4080.00
532.70	3991.50
532.82	4040.00
532.95	4086.00
533.08	4133.00
533.21	4078.50
533.33	4016.50
533.46	4059.00
533.59	4073.50
533.71	4135.00
533.84	4105.00
533.97	4062.00
534.10	4039.50
534.22	4079.00
534.35	4099.00
534.48	4092.00
534.61	4150.50
534.73	4055.50
534.86	4096.50
534.99	4170.00
535.11	4154.00
535.24	4113.00
535.37	4105.50
535.50	4076.50
535.62	4072.00
535.75	4166.00
535.88	4162.50
536.00	4095.50
536.13	4135.50
536.26	4131.50
536.39	4118.00
536.51	4102.00
536.64	4158.50
536.77	4117.00
536.89	4185.00
537.02	4186.00
537.15	4179.00
537.28	4179.00
537.40	4213.00
537.53	4175.00
537.66	4200.00
537.78	4198.00
537.91	4168.00
538.04	4160.50
538.17	4265.50
538.29	4229.50
538.42	4277.50
538.55	4230.00
538.67	4241.00
538.80	4227.50
538.93	4236.50
539.05	4229.50
539.18	4297.00
539.31	4240.00
539.44	4283.00
539.56	4187.00
539.69	4252.50
539.82	4248.00
539.94	4236.00
540.07	4212.00
540.20	4347.50
540.32	4224.00
540.45	4254.00
540.58	4273.00
540.71	4327.50
540.83	4208.00
540.96	4250.00
541.09	4295.00
541.21	4338.00
541.34	4318.00
541.47	4258.00
541.59	4314.00
541.72	4369.50
541.85	4433.00
541.98	4341.50
542.10	4325.00
542.23	4307.50
542.36	4418.00
542.48	4346.50
542.61	4332.50
542.74	4278.50
542.86	4345.50
542.99	4314.00
543.12	4346.50
543.24	4366.50
543.37	4313.00
543.50	4362.00
543.62	4343.00
543.75	4356.00
543.88	4374.50
544.01	4371.00
544.13	4427.00
544.26	4383.50
544.39	4374.50
544.51	4376.50
544.64	4343.50
544.77	4411.50
544.89	4362.50
545.02	4424.00
545.15	4418.00
545.27	4498.50
545.40	4456.00
545.53	4444.00
545.65	4440.50
545.78	4365.50
545.91	4404.50
546.03	4415.50
546.16	4441.00
546.29	4417.00
546.41	4417.00
546.54	4436.50
546.67	4435.50
546.79	4450.00
546.92	4498.50
547.05	4395.00
547.17	4487.50
547.30	4451.00
547.43	4473.50
547.56	4451.50
547.68	4443.50
547.81	4456.00
547.94	4484.50
548.06	4493.50
548.19	4448.00
548.32	4555.50
548.44	4479.00
548.57	4530.00
548.70	4561.50
548.82	4558.50
548.95	4477.50
549.08	4507.50
549.20	4495.50
549.33	4582.00
549.45	4533.00
549.58	4516.00
549.71	4455.50
549.83	4541.50
549.96	4427.50
550.09	4535.00
550.21	4498.00
550.34	4537.50
550.47	4498.00
550.59	4563.00
550.72	4489.50
550.85	4548.00
550.97	4624.50
551.10	4556.50
551.23	4563.00
551.35	4667.50
551.48	4614.00
551.61	4587.00
551.73	4590.50
551.86	4675.50
551.99	4635.00
552.11	4628.00
552.24	4622.50
552.37	4638.50
552.49	4623.50
552.62	4638.50
552.75	4649.00
552.87	4612.00
553.00	4599.00
553.12	4634.50
553.25	4631.00
553.38	4651.50
553.50	4693.50
553.63	4640.00
553.76	4577.50
553.88	4668.50
554.01	4641.50
554.14	4676.50
554.26	4709.00
554.39	4739.50
554.52	4662.50
554.64	4670.00
554.77	4686.00
554.89	4715.50
555.02	4727.50
555.15	4732.00
555.27	4739.50
555.40	4729.00
555.53	4790.50
555.65	4683.00
555.78	4689.00
555.91	4737.00
556.03	4842.50
556.16	4718.50
556.29	4747.50
556.41	4798.00
556.54	4802.50
556.66	4775.50
556.79	4768.50
556.92	4747.50
557.04	4785.00
557.17	4755.00
557.30	4766.00
557.42	4767.50
557.55	4793.50
557.67	4816.00
557.80	4789.00
557.93	4819.00
558.05	4854.00
558.18	4786.00
558.31	4803.00
558.43	4886.00
558.56	4846.50
558.68	4835.50
558.81	4814.00
558.94	4853.50
559.06	4937.50
559.19	4864.50
559.32	4828.00
559.44	4834.00
559.57	4885.50
559.69	4884.50
559.82	4858.50
559.95	4872.00
560.07	4854.00
560.20	4825.00
560.33	4885.50
560.45	4900.00
560.58	4879.00
560.70	4938.00
560.83	4936.00
560.96	4899.50
561.08	4910.50
561.21	4937.00
561.33	4889.50
561.46	4845.50
561.59	4966.00
561.71	4930.50
561.84	4919.50
561.97	4948.00
562.09	4989.00
562.22	4948.50
562.34	4919.50
562.47	5006.50
562.60	5004.50
562.72	4983.00
562.85	4975.00
562.97	4988.00
563.10	4972.00
563.23	4952.50
563.35	4967.00
563.48	5001.00
563.60	4986.50
563.73	5032.00
563.86	4931.00
563.98	4976.00
564.11	5007.00
564.23	5026.00
564.36	5058.50
564.49	5032.50
564.61	5086.50
564.74	5072.50
564.86	5023.00
564.99	5072.00
565.12	5096.50
565.24	5133.50
565.37	5117.50
565.49	5112.50
565.62	5128.50
565.75	5117.50
565.87	5051.50
566.00	5214.50
566.12	5181.50
566.25	5100.50
566.38	5114.00
566.50	5116.00
566.63	5155.50
566.75	5087.00
566.88	5122.50
567.01	5038.50
567.13	5081.50
567.26	5080.00
567.38	5065.50
567.51	5154.00
567.64	5089.00
567.76	5152.50
567.89	5122.00
568.01	5106.50
568.14	5074.00
568.26	5112.00
568.39	5129.00
568.52	5146.00
568.64	5187.50
568.77	5164.00
568.89	5118.50
569.02	5138.50
569.15	5134.50
569.27	5151.50
569.40	5161.50
569.52	5161.50
569.65	5111.00
569.77	5146.00
569.90	5126.00
570.03	5098.00
570.15	5180.00
570.28	5169.00
570.40	5178.50
570.53	5184.50
570.66	5237.50
570.78	5232.50
570.91	5185.50
571.03	5167.50
571.16	5202.00
571.28	5155.00
571.41	5136.00
571.54	5154.50
571.66	5075.50
571.79	5166.50
571.91	5155.50
572.04	5164.50
572.16	5207.00
572.29	5260.50
572.42	5168.00
572.54	5171.50
572.67	5155.00
572.79	5219.00
572.92	5196.50
573.04	5239.50
573.17	5269.50
573.29	5216.50
573.42	5173.50
573.55	5272.00
573.67	5265.00
573.80	5213.50
573.92	5199.00
574.05	5200.50
574.17	5279.00
574.30	5264.00
574.43	5204.00
574.55	5218.00
574.68	5273.00
574.80	5232.00
574.93	5222.00
575.05	5205.50
575.18	5217.50
575.30	5269.50
575.43	5290.50
575.56	5309.50
575.68	5234.50
575.81	5232.50
575.93	5198.00
576.06	5242.00
576.18	5289.50
576.31	5233.00
576.43	5257.00
576.56	5342.50
576.69	5235.50
576.81	5268.00
576.94	5200.00
577.06	5244.00
577.19	5334.00
577.31	5255.00
577.44	5295.50
577.56	5303.00
577.69	5297.50
577.82	5300.00
577.94	5242.00
578.07	5186.00
578.19	5291.50
578.32	5311.00
578.44	5230.50
578.57	5257.50
578.69	5307.00
578.82	5278.50
578.94	5362.50
579.07	5306.00
579.19	5316.00
579.32	5295.00
579.45	5306.50
579.57	5282.50
579.70	5261.50
579.82	5301.50
579.95	5275.50
580.07	5336.50
580.20	5304.50
580.32	5322.50
580.45	5309.00
580.57	5322.00
580.70	5319.50
580.82	5345.00
580.95	5317.50
581.08	5227.00
581.20	5366.50
581.33	5328.00
581.45	5326.50
581.58	5311.00
581.70	5329.00
581.83	5213.50
581.95	5321.00
582.08	5344.00
582.20	5293.50
582.33	5313.50
582.45	5286.00
582.58	5298.50
582.70	5326.50
582.83	5323.00
582.95	5321.50
583.08	5332.50
583.21	5377.00
583.33	5348.50
583.46	5331.00
583.58	5297.50
583.71	5350.50
583.83	5327.00
583.96	5306.00
584.08	5344.50
584.21	5363.50
584.33	5364.50
584.46	5317.50
584.58	5317.50
584.71	5382.50
584.83	5376.50
584.96	5369.00
585.08	5328.00
585.21	5406.50
585.33	5399.50
585.46	5363.00
585.58	5351.00
585.71	5313.00
585.83	5314.50
585.96	5383.00
586.08	5370.50
586.21	5373.00
586.33	5353.50
586.46	5338.50
586.59	5394.00
586.71	5309.50
586.84	5396.00
586.96	5359.50
587.09	5293.00
587.21	5319.50
587.34	5392.00
587.46	5356.50
587.59	5305.50
587.71	5352.50
587.84	5326.00
587.96	5338.50
588.09	5307.50
588.21	5379.00
588.34	5373.50
588.46	5371.50
588.59	5396.00
588.71	5407.50
588.84	5417.00
588.96	5398.50
589.09	5463.50
589.21	5413.50
589.34	5364.50
589.46	5395.00
589.59	5371.50
589.71	5371.50
589.84	5335.50
589.96	5350.00
590.09	5393.50
590.21	5413.50
590.34	5435.50
590.46	5393.00
590.59	5396.00
590.71	5396.50
590.84	5395.50
590.96	5383.00
591.09	5400.00
591.21	5380.00
591.34	5405.00
591.46	5369.00
591.59	5466.50
591.71	5431.50
591.83	5396.50
591.96	5385.00
592.08	5413.00
592.21	5461.50
592.33	5414.00
592.46	5424.00
592.58	5415.00
592.71	5492.50
592.83	5508.50
592.96	5491.50
593.08	5443.50
593.21	5361.00
593.33	5352.50
593.46	5443.50
593.58	5400.00
593.71	5448.00
593.83	5486.00
593.96	5373.00
594.08	5550.00
594.21	5423.50
594.33	5385.50
594.46	5403.00
594.58	5356.00
594.71	5336.50
594.83	5451.00
594.96	5433.50
595.08	5586.50
595.20	5471.50
595.33	5460.00
595.45	5427.50
595.58	5507.50
595.70	5464.50
595.83	5410.50
595.95	5454.50
596.08	5423.00
596.20	5384.50
596.33	5408.00
596.45	5445.00
596.58	5441.50
596.70	5409.50
596.83	5452.00
596.95	5418.50
597.08	5456.50
597.20	5442.00
597.32	5443.00
597.45	5453.00
597.57	5448.50
597.70	5464.50
597.82	5442.50
597.95	5474.50
598.07	5452.00
598.20	5456.50
598.32	5483.00
598.45	5451.00
598.57	5528.00
598.70	5500.00
598.82	5463.00
598.94	5455.50
599.07	5488.50
599.19	5465.00
599.32	5451.50
599.44	5400.00
599.57	5510.00
599.69	5512.00
599.82	5482.50
599.94	5458.00
600.07	5546.00
600.19	5514.50
600.31	5436.00
600.44	5505.50
600.56	5536.00
600.69	5539.50
600.81	5484.50
600.94	5493.00
601.06	5488.50
601.19	5508.00
601.31	5508.00
601.44	5401.50
601.56	5559.50
601.68	5494.50
601.81	5538.00
601.93	5474.00
602.06	5515.50
602.18	5448.50
602.31	5444.00
602.43	5528.00
602.56	5502.00
602.68	5502.00
602.80	5518.50
602.93	5494.00
603.05	5460.00
603.18	5514.00
603.30	5438.50
603.43	5465.00
603.55	5481.50
603.68	5555.00
603.80	5516.50
603.92	5487.50
604.05	5458.00
604.17	5444.50
604.30	5454.00
604.42	5467.00
604.55	5517.00
604.67	5532.00
604.79	5497.50
604.92	5521.50
605.04	5499.50
605.17	5507.00
605.29	5517.50
605.42	5483.50
605.54	5558.50
605.66	5464.50
605.79	5579.50
605.91	5539.00
606.04	5539.00
606.16	5517.50
606.29	5555.50
606.41	5525.00
606.53	5511.00
606.66	5456.00
606.78	5555.50
606.91	5519.50
607.03	5529.50
607.16	5523.00
607.28	5537.00
607.40	5515.00
607.53	5551.50
607.65	5524.00
607.78	5538.00
607.90	5520.50
608.03	5630.00
608.15	5569.00
608.27	5552.50
608.40	5502.00
608.52	5578.00
608.65	5536.50
608.77	5564.00
608.89	5503.50
609.02	5667.50
609.14	5635.50
609.27	5552.50
609.39	5591.50
609.52	5513.50
609.64	5509.00
609.76	5502.00
609.89	5524.50
610.01	5582.50
610.14	5577.00
610.26	5543.00
610.38	5540.50
610.51	5555.50
610.63	5530.00
610.76	5529.00
610.88	5548.50
611.01	5590.00
611.13	5635.00
611.25	5646.00
611.38	5557.00
611.50	5551.50
611.63	5573.50
611.75	5571.00
611.87	5559.00
612.00	5533.00
612.12	5601.50
612.25	5557.50
612.37	5525.00
612.49	5614.00
612.62	5566.00
612.74	5615.50
612.87	5545.50
612.99	5535.50
613.11	5498.50
613.24	5536.00
613.36	5567.00
613.49	5583.50
613.61	5545.50
613.73	5539.50
613.86	5588.50
613.98	5536.50
614.11	5614.50
614.23	5567.50
614.35	5588.50
614.48	5563.00
614.60	5565.00
614.72	5532.50
614.85	5557.00
614.97	5564.00
615.10	5564.50
615.22	5506.00
615.34	5580.50
615.47	5581.50
615.59	5548.00
615.72	5532.50
615.84	5570.50
615.96	5538.50
616.09	5622.50
616.21	5544.00
616.34	5558.00
616.46	5542.00
616.58	5534.50
616.71	5582.50
616.83	5586.50
616.95	5655.50
617.08	5590.00
617.20	5528.50
617.33	5515.50
617.45	5522.50
617.57	5583.00
617.70	5567.00
617.82	5525.00
617.95	5571.00
618.07	5650.00
618.19	5552.00
618.32	5574.50
618.44	5533.00
618.56	5540.50
618.69	5521.00
618.81	5494.00
618.94	5604.00
619.06	5517.00
619.18	5569.00
619.31	5492.00
619.43	5512.00
619.55	5537.50
619.68	5553.50
619.80	5501.50
619.92	5578.00
620.05	5673.50
620.17	5649.50
620.30	5527.00
620.42	5501.00
620.54	5601.50
620.67	5524.50
620.79	5554.50
620.91	5579.50
621.04	5597.50
621.16	5523.50
621.29	5565.00
621.41	5485.50
621.53	5522.50
621.66	5557.50
621.78	5515.50
621.90	5628.00
622.03	5653.00
622.15	5534.00
622.27	5553.50
622.40	5556.50
622.52	5500.50
622.64	5537.50
622.77	5458.50
622.89	5562.00
623.02	5585.50
623.14	5508.50
623.26	5567.00
623.39	5578.50
623.51	5573.50
623.63	5503.50
623.76	5483.50
623.88	5582.00
624.00	5523.50
624.13	5486.00
624.25	5499.00
624.37	5481.50
624.50	5519.50
624.62	5547.00
624.75	5475.50
624.87	5498.00
624.99	5573.50
625.12	5519.50
625.24	5529.00
625.36	5566.50
625.49	5517.00
625.61	5527.50
625.73	5536.00
625.86	5583.00
625.98	5498.00
626.10	5471.50
626.23	5454.00
626.35	5545.00
626.47	5480.50
626.60	5469.50
626.72	5473.00
626.84	5467.00
626.97	5482.00
627.09	5494.00
627.21	5488.00
627.34	5573.00
627.46	5551.00
627.58	5527.50
627.71	5513.50
627.83	5512.00
627.95	5437.00
628.08	5498.00
628.20	5517.50
628.32	5502.00
628.45	5420.50
628.57	5451.00
628.69	5461.50
628.82	5504.50
628.94	5542.00
629.06	5491.00
629.19	5451.00
629.31	5519.50
629.43	5447.00
629.56	5468.50
629.68	5482.50
629.80	5495.00
629.93	5434.50
630.05	5448.50
630.17	5447.00
630.30	5446.50
630.42	5438.00
630.54	5472.50
630.67	5489.00
630.79	5456.50
630.91	5585.00
631.04	5487.50
631.16	5482.50
631.28	5485.50
631.41	5414.00
631.53	5404.50
631.65	5457.00
631.78	5457.50
631.90	5442.50
632.02	5460.00
632.14	5391.00
632.27	5496.50
632.39	5429.00
632.51	5424.50
632.64	5509.50
632.76	5448.00
632.88	5426.50
633.01	5431.50
633.13	5436.50
633.25	5420.50
633.38	5584.50
633.50	5413.00
633.62	5388.50
633.75	5347.00
633.87	5322.00
633.99	5440.00
634.11	5411.50
634.24	5391.00
634.36	5422.50
634.48	5427.50
634.61	5398.00
634.73	5481.50
634.85	5373.00
634.98	5411.50
635.10	5414.00
635.22	5439.50
635.35	5497.00
635.47	5406.00
635.59	5429.00
635.71	5428.00
635.84	5434.50
635.96	5371.50
636.08	5445.50
636.21	5386.00
636.33	5402.00
636.45	5399.50
636.58	5354.50
636.70	5360.00
636.82	5397.50
636.94	5405.50
637.07	5332.50
637.19	5486.50
637.31	5408.00
637.44	5424.00
637.56	5353.00
637.68	5452.50
637.81	5379.50
637.93	5427.00
638.05	5359.00
638.17	5444.50
638.30	5485.50
638.42	5375.00
638.54	5364.50
638.67	5392.50
638.79	5386.00
638.91	5339.50
639.03	5358.00
639.16	5366.00
639.28	5359.50
639.40	5375.50
639.53	5319.00
639.65	5401.50
639.77	5384.50
639.89	5355.00
640.02	5334.00
640.14	5387.50
640.26	5325.50
640.39	5377.50
640.51	5291.00
640.63	5373.00
640.75	5433.50
640.88	5338.50
641.00	5322.00
641.12	5284.50
641.24	5419.00
641.37	5370.00
641.49	5331.50
641.61	5422.50
641.74	5321.00
641.86	5381.00
641.98	5352.00
642.10	5346.50
642.23	5376.00
642.35	5336.00
642.47	5379.50
642.60	5386.50
642.72	5386.50
642.84	5277.50
642.96	5297.00
643.09	5287.50
643.21	5308.00
643.33	5291.50
643.45	5351.00
643.58	5361.00
643.70	5390.50
643.82	5344.00
643.94	5320.50
644.07	5347.00
644.19	5328.50
644.31	5349.50
644.44	5338.50
644.56	5274.50
644.68	5279.00
644.80	5299.50
644.93	5305.50
645.05	5311.00
645.17	5349.50
645.29	5333.00
645.42	5345.50
645.54	5311.50
645.66	5334.00
645.78	5333.50
645.91	5284.00
646.03	5268.50
646.15	5398.50
646.27	5299.50
646.40	5336.00
646.52	5324.50
646.64	5362.50
646.76	5337.00
646.89	5242.00
647.01	5291.00
647.13	5320.50
647.25	5396.00
647.38	5275.50
647.50	5287.00
647.62	5352.00
647.74	5290.50
647.87	5254.50
647.99	5287.00
648.11	5322.50
648.23	5315.50
648.36	5240.00
648.48	5360.00
648.60	5305.50
648.72	5323.50
648.85	5245.50
648.97	5337.50
649.09	5283.50
649.21	5305.00
649.34	5310.00
649.46	5350.00
649.58	5351.50
649.70	5296.00
649.83	5281.00
649.95	5351.00
650.07	5311.00
650.19	5302.00
650.32	5297.00
650.44	5343.50
650.56	5314.00
650.68	5253.00
650.81	5262.00
650.93	5257.00
651.05	5328.00
651.17	5222.00
651.29	5276.00
651.42	5248.50
651.54	5303.50
651.66	5228.50
651.78	5280.00
651.91	5325.50
652.03	5384.00
652.15	5316.00
652.27	5218.50
652.40	5279.00
652.52	5242.00
652.64	5288.50
652.76	5301.00
652.88	5342.50
653.01	5265.50
653.13	5239.50
653.25	5190.00
653.37	5275.50
653.50	5290.50
653.62	5294.50
653.74	5244.00
653.86	5310.00
653.98	5301.00
654.11	5255.50
654.23	5262.50
654.35	5239.00
654.47	5364.50
654.60	5229.00
654.72	5242.50
654.84	5232.50
654.96	5306.50
655.08	5277.00
655.21	5273.50
655.33	5246.50
655.45	5325.50
655.57	5276.00
655.70	5262.50
655.82	5282.00
655.94	5314.50
656.06	5285.50
656.18	5194.50
656.31	5260.50
656.43	5276.50
656.55	5228.00
656.67	5250.00
656.79	5274.50
656.92	5278.50
657.04	5286.50
657.16	5231.50
657.28	5372.50
657.40	5294.00
657.53	5326.50
657.65	5231.50
657.77	5269.00
657.89	5331.00
658.01	5223.50
658.14	5193.50
658.26	5273.50
658.38	5215.00
658.50	5223.00
658.62	5217.00
658.75	5368.00
658.87	5280.00
658.99	5311.00
659.11	5191.00
659.23	5314.00
659.36	5361.50
659.48	5282.00
659.60	5247.00
659.72	5222.50
659.84	5214.00
659.97	5292.00
660.09	5292.50
660.21	5351.00
660.33	5261.50
660.45	5191.00
660.58	5159.00
660.70	5235.00
660.82	5231.50
660.94	5200.50
661.06	5239.50
661.19	5295.00
661.31	5259.00
661.43	5226.50
661.55	5217.00
661.67	5264.50
661.80	5298.50
661.92	5201.50
662.04	5255.00
662.16	5249.00
662.28	5285.00
662.40	5244.50
662.53	5215.00
662.65	5213.00
662.77	5215.00
662.89	5235.00
663.01	5202.00
663.14	5186.50
663.26	5244.50
663.38	5222.00
663.50	5187.50
663.62	5236.00
663.74	5216.00
663.87	5226.00
663.99	5233.50
664.11	5249.50
664.23	5299.50
664.35	5171.00
664.48	5208.50
664.60	5217.00
664.72	5191.50
664.84	5167.50
664.96	5188.50
665.08	5324.00
665.21	5239.50
665.33	5258.50
665.45	5171.00
665.57	5230.50
665.69	5280.50
665.81	5194.00
665.94	5187.00
666.06	5171.00
666.18	5234.50
666.30	5229.00
666.42	5158.00
666.54	5245.50
666.67	5221.50
666.79	5192.50
666.91	5233.50
667.03	5194.50
667.15	5136.00
667.27	5186.00
667.40	5136.50
667.52	5215.50
667.64	5210.50
667.76	5165.50
667.88	5166.00
668.00	5189.50
668.13	5222.00
668.25	5141.50
668.37	5136.00
668.49	5185.50
668.61	5227.00
668.73	5182.00
668.85	5186.50
668.98	5241.00
669.10	5180.50
669.22	5173.50
669.34	5194.50
669.46	5223.00
669.58	5156.00
669.71	5166.00
669.83	5208.00
669.95	5159.50
670.07	5208.50
670.19	5158.00
670.31	5215.50
670.43	5157.50
670.56	5183.00
670.68	5215.50
670.80	5196.50
670.92	5169.50
671.04	5222.50
671.16	5170.50
671.28	5147.50
671.41	5169.00
671.53	5207.50
671.65	5155.50
671.77	5139.00
671.89	5284.50
672.01	5245.00
672.13	5174.00
672.26	5138.00
672.38	5195.00
672.50	5122.00
672.62	5127.50
672.74	5178.00
672.86	5172.50
672.98	5146.50
673.11	5126.00
673.23	5147.00
673.35	5202.50
673.47	5135.50
673.59	5152.50
673.71	5138.50
673.83	5203.50
673.96	5268.50
674.08	5118.50
674.20	5140.00
674.32	5180.00
674.44	5141.00
674.56	5192.00
674.68	5127.00
674.80	5179.50
674.93	5138.50
675.05	5148.50
675.17	5119.00
675.29	5187.50
675.41	5174.50
675.53	5115.50
675.65	5123.50
675.77	5115.50
675.90	5183.00
676.02	5132.50
676.14	5132.00
676.26	5199.00
676.38	5210.00
676.50	5155.50
676.62	5159.50
676.74	5111.00
676.87	5071.00
676.99	5163.50
677.11	5144.50
677.23	5123.50
677.35	5083.50
677.47	5101.50
677.59	5117.50
677.71	5093.50
677.83	5172.50
677.96	5114.00
678.08	5103.00
678.20	5106.50
678.32	5067.00
678.44	5115.50
678.56	5099.00
678.68	5199.50
678.80	5139.00
678.93	5069.50
679.05	5084.00
679.17	5103.50
679.29	5171.50
679.41	5095.50
679.53	5024.50
679.65	5060.50
679.77	5091.00
679.89	5063.50
680.01	5109.00
680.14	5149.50
680.26	5031.00
680.38	5064.00
680.50	5089.50
680.62	5169.00
680.74	5144.00
680.86	5102.00
680.98	5062.00
681.10	5099.50
681.22	5165.00
681.35	5040.00
681.47	5066.50
681.59	5040.50
681.71	5178.50
681.83	5029.00
681.95	5032.00
682.07	5130.00
682.19	5074.50
682.31	5032.50
682.43	5023.50
682.56	5096.50
682.68	5034.50
682.80	5063.00
682.92	5069.50
683.04	5062.00
683.16	5047.50
683.28	5023.50
683.40	5062.00
683.52	5042.00
683.64	5049.50
683.76	5005.50
683.89	5033.50
684.01	5064.50
684.13	5087.00
684.25	5067.00
684.37	5034.50
684.49	5086.50
684.61	5019.00
684.73	5048.50
684.85	5052.50
684.97	5044.00
685.09	5095.50
685.21	4979.50
685.34	5029.50
685.46	5137.50
685.58	5055.00
685.70	5032.50
685.82	5055.00
685.94	4980.00
686.06	4976.00
686.18	4966.00
686.30	4963.50
686.42	4990.00
686.54	5020.00
686.66	4987.50
686.79	5119.50
686.91	5013.00
687.03	5119.00
687.15	5049.00
687.27	5070.50
687.39	5034.50
687.51	5057.50
687.63	4993.00
687.75	5036.50
687.87	5031.50
687.99	5090.50
688.11	4930.00
688.23	4980.50
688.35	5003.50
688.48	4991.00
688.60	4955.50
688.72	4980.00
688.84	5042.00
688.96	5032.00
689.08	5003.50
689.20	4993.00
689.32	5094.00
689.44	4964.50
689.56	4902.50
689.68	4937.00
689.80	5003.00
689.92	4975.00
690.04	4948.50
690.16	5008.00
690.28	4966.50
690.41	5009.50
690.53	4937.50
690.65	4996.50
690.77	5029.50
690.89	5004.50
691.01	4929.50
691.13	4923.00
691.25	4922.00
691.37	4931.00
691.49	4915.50
691.61	4904.00
691.73	5027.50
691.85	4989.50
691.97	4944.50
692.09	4935.00
692.21	5027.00
692.33	5015.50
692.45	4946.50
692.57	4908.50
692.70	4995.00
692.82	4997.50
692.94	4937.50
693.06	4892.00
693.18	4950.50
693.30	4935.00
693.42	4913.00
693.54	4970.50
693.66	4965.50
693.78	4994.00
693.90	4912.50
694.02	4928.00
694.14	4965.50
694.26	4943.00
694.38	4968.50
694.50	4985.50
694.62	4966.00
694.74	4884.50
694.86	4884.50
694.98	4939.50
695.10	4944.00
695.22	4966.00
695.34	4927.50
695.46	4872.00
695.58	4889.00
695.71	4907.00
695.83	4891.50
695.95	4924.50
696.07	4968.00
696.19	4877.00
696.31	4903.50
696.43	4868.50
696.55	4993.50
696.67	4922.00
696.79	4861.50
696.91	4940.50
697.03	4871.50
697.15	4985.00
697.27	4860.50
697.39	4875.00
697.51	4971.50
697.63	4879.50
697.75	4862.50
697.87	4915.50
697.99	4867.50
698.11	4821.50
698.23	4831.00
698.35	4861.00
698.47	4890.00
698.59	4934.50
698.71	4836.00
698.83	4967.50
698.95	4852.50
699.07	4891.50
699.19	4857.50
699.31	4895.00
699.43	4856.50
699.55	4926.50
699.67	4875.50
699.79	4885.00
699.91	4875.50
700.03	4877.00
700.15	4880.00
700.27	4849.50
700.39	4853.00
700.51	4828.00
700.63	4892.50
700.75	4883.50
700.87	4891.00
700.99	4856.00
701.11	4887.50
701.24	4881.50
701.36	4897.00
701.48	4906.00
701.60	4922.50
701.72	4835.50
701.84	4925.50
701.96	4883.00
702.08	4855.00
702.20	4931.50
702.32	4902.00
702.44	4909.50
702.56	4860.00
702.68	4870.50
702.80	4888.50
702.92	4951.50
703.04	4915.00
703.16	4908.00
703.28	4887.00
703.40	4876.00
703.52	4874.00
703.64	4911.00
703.76	4869.50
703.88	4830.00
704.00	4835.50
704.12	4876.00
704.24	4906.50
704.36	4893.00
704.48	4900.00
704.60	4801.50
704.72	4887.00
704.84	4832.50
704.96	4855.00
705.07	4861.50
705.19	4824.50
705.31	4834.50
705.43	4868.50
705.55	4818.50
705.67	4838.50
705.79	4834.00
705.91	4787.50
706.03	4812.50
706.15	4868.50
706.27	4845.00
706.39	4816.50
706.51	4788.50
706.63	4846.00
706.75	4870.00
706.87	4856.00
706.99	4918.00
707.11	4854.00
707.23	4820.50
707.35	4872.50
707.47	4863.50
707.59	4843.00
707.71	4888.00
707.83	4849.50
707.95	4879.00
708.07	4879.50
708.19	4951.00
708.31	4853.00
708.43	4821.00
708.55	4844.00
708.67	4894.00
708.79	4837.00
708.91	4882.50
709.03	4889.50
709.15	4917.00
709.27	4831.00
709.39	4832.00
709.51	4828.50
709.63	4827.50
709.75	4864.50
709.87	4802.50
709.99	4866.00
710.11	4777.50
710.23	4829.00
710.35	4792.00
710.47	4916.00
710.58	4871.00
710.70	4858.50
710.82	4889.00
710.94	4869.00
711.06	4857.50
711.18	4839.00
711.30	4830.00
711.42	4872.50
711.54	4832.00
711.66	4839.50
711.78	4780.50
711.90	4827.00
712.02	4880.50
712.14	4831.00
712.26	4804.00
712.38	4885.50
712.50	4857.50
712.62	4842.50
712.74	4783.50
712.86	4780.00
712.98	4873.50
713.10	4812.00
713.22	4803.00
713.34	4829.00
713.45	4777.00
713.57	4857.00
713.69	4807.00
713.81	4807.50
713.93	4809.50
714.05	4805.50
714.17	4780.50
714.29	4876.50
714.41	4898.50
714.53	4815.00
714.65	4836.50
714.77	4806.50
714.89	4786.00
715.01	4883.50
715.13	4803.00
715.25	4809.50
715.37	4759.50
715.49	4792.00
715.61	4849.50
715.72	4817.50
715.84	4856.00
715.96	4766.50
716.08	4753.50
716.20	4848.50
716.32	4824.50
716.44	4780.00
716.56	4820.00
716.68	4835.50
716.80	4883.00
716.92	4812.50
717.04	4813.00
717.16	4786.50
717.28	4784.50
717.40	4791.00
717.52	4788.50
717.63	4753.00
717.75	4795.50
717.87	4778.50
717.99	4813.50
718.11	4792.00
718.23	4871.00
718.35	4827.00
718.47	4820.00
718.59	4763.00
718.71	4754.00
718.83	4736.00
718.95	4740.00
719.07	4714.00
719.19	4736.50
719.30	4728.50
719.42	4796.00
719.54	4754.50
719.66	4783.00
719.78	4761.50
719.90	4703.00
720.02	4754.50
720.14	4740.50
720.26	4779.50
720.38	4775.50
720.50	4745.00
720.62	4693.00
720.74	4726.00
720.85	4689.00
720.97	4768.00
721.09	4844.50
721.21	4735.00
721.33	4803.50
721.45	4761.00
721.57	4724.00
721.69	4720.00
721.81	4634.50
721.93	4777.50
722.05	4730.00
722.16	4739.50
722.28	4674.00
722.40	4740.50
722.52	4757.50
722.64	4784.00
722.76	4703.00
722.88	4757.00
723.00	4796.50
723.12	4713.00
723.24	4782.00
723.36	4707.50
723.47	4746.00
723.59	4743.50
723.71	4716.50
723.83	4762.50
723.95	4714.50
724.07	4700.00
724.19	4747.50
724.31	4755.50
724.43	4672.50
724.55	4679.00
724.66	4723.50
724.78	4876.50
724.90	4707.00
725.02	4698.50
725.14	4704.50
725.26	4713.00
725.38	4639.00
725.50	4737.50
725.62	4716.50
725.74	4693.00
725.85	4680.00
725.97	4678.00
726.09	4774.00
726.21	5025.00
726.33	4731.50
726.45	4727.50
726.57	4680.50
726.69	4736.00
726.81	4696.50
726.92	4689.50
727.04	4737.00
727.16	4704.00
727.28	4683.00
727.40	4697.50
727.52	4704.50
727.64	4824.50
727.76	4768.50
727.88	4721.50
727.99	4682.50
728.11	4651.00
728.23	4685.50
728.35	4678.50
728.47	4705.00
728.59	4701.00
728.71	4717.00
728.83	4695.00
728.94	4703.50
729.06	4785.00
729.18	4768.00
729.30	4749.00
729.42	4734.50
729.54	4771.00
729.66	4772.50
729.78	4720.00
729.90	4704.00
730.01	4670.50
730.13	4634.50
730.25	4690.50
730.37	4711.50
730.49	4721.00
730.61	4690.50
730.73	4699.00
730.84	4723.50
730.96	4698.50
731.08	4728.50
731.20	4699.00
731.32	4662.00
731.44	4831.00
731.56	4681.00
731.68	4648.50
731.79	4703.50
731.91	4679.00
732.03	4640.50
732.15	4668.00
732.27	4638.50
732.39	4667.50
732.51	4702.50
732.62	4651.50
732.74	4614.50
732.86	4733.50
732.98	4671.00
733.10	4668.00
733.22	4683.50
733.34	4684.00
733.45	4653.00
733.57	4688.00
733.69	4630.00
733.81	4665.50
733.93	4666.00
734.05	4611.50
734.17	4648.50
734.28	4638.50
734.40	4646.50
734.52	4619.00
734.64	4644.50
734.76	4744.00
734.88	4637.00
735.00	4624.50
735.11	4650.50
735.23	4658.50
735.35	4613.00
735.47	4577.50
735.59	4677.00
735.71	4620.50
735.83	4629.00
735.94	4674.00
736.06	4674.50
736.18	4653.00
736.30	4651.50
736.42	4670.00
736.54	4621.50
736.65	4655.00
736.77	4794.00
736.89	4683.00
737.01	4618.50
737.13	4714.50
737.25	4551.50
737.36	4557.50
737.48	4595.00
737.60	4589.00
737.72	4622.00
737.84	4594.50
737.96	4641.50
738.08	4590.50
738.19	4681.50
738.31	4599.00
738.43	4606.50
738.55	4586.00
738.67	4620.00
738.79	4561.50
738.90	4569.00
739.02	4596.50
739.14	4565.00
739.26	4563.00
739.38	4611.50
739.50	4602.00
739.61	4566.50
739.73	4602.50
739.85	4575.50
739.97	4606.50
740.09	4622.00
740.20	4522.00
740.32	4603.00
740.44	4592.50
740.56	4514.00
740.68	4571.50
740.80	4567.00
740.91	4580.50
741.03	4601.50
741.15	4605.00
741.27	4569.50
741.39	4609.50
741.51	4596.50
741.62	4620.50
741.74	4569.00
741.86	4569.50
741.98	4519.00
742.10	4563.50
742.21	4486.50
742.33	4571.50
742.45	4522.00
742.57	4576.50
742.69	4555.50
742.80	4563.00
742.92	4525.50
743.04	4521.00
743.16	4477.00
743.28	4613.50
743.40	4482.00
743.51	4471.00
743.63	4503.50
743.75	4508.00
743.87	4525.00
743.99	4530.00
744.10	4491.50
744.22	4489.50
744.34	4468.00
744.46	4522.50
744.58	4521.00
744.69	4435.00
744.81	4506.00
744.93	4433.00
745.05	4446.00
745.17	4570.50
745.28	4558.00
745.40	4493.00
745.52	4468.00
745.64	4497.50
745.76	4533.50
745.87	4474.00
745.99	4459.50
746.11	4469.00
746.23	4435.50
746.35	4463.00
746.46	4441.50
746.58	4522.00
746.70	4456.50
746.82	4455.50
746.94	4446.00
747.05	4399.00
747.17	4363.00
747.29	4361.00
747.41	4408.50
747.53	4549.50
747.64	4437.50
747.76	4493.00
747.88	4485.00
748.00	4481.50
748.12	4435.50
748.23	4413.50
748.35	4441.00
748.47	4455.00
748.59	4443.00
748.70	4415.50
748.82	4399.50
748.94	4342.00
749.06	4393.00
749.18	4415.00
749.29	4378.00
749.41	4394.00
749.53	4353.50
749.65	4392.00
749.76	4411.00
749.88	4333.00
750.00	4388.50
750.12	4415.50
750.24	4371.50
750.35	4388.00
750.47	4307.50
750.59	4402.00
750.71	4366.50
750.82	4411.50
750.94	4313.00
751.06	4359.00
751.18	4336.50
751.30	4369.00
751.41	4373.00
751.53	4348.50
751.65	4316.00
751.77	4327.00
751.88	4359.00
752.00	4377.50
752.12	4302.50
752.24	4363.50
752.35	4327.00
752.47	4338.50
752.59	4366.50
752.71	4372.50
752.83	4297.00
752.94	4385.50
753.06	4291.00
753.18	4321.50
753.30	4299.00
753.41	4246.00
753.53	4244.00
753.65	4261.00
753.77	4327.50
753.88	4264.50
754.00	4274.50
754.12	4296.00
754.24	4347.00
754.35	4251.00
754.47	4193.00
754.59	4261.50
754.71	4281.00
754.82	4289.50
754.94	4232.50
755.06	4275.00
755.18	4242.00
755.29	4283.50
755.41	4225.50
755.53	4241.00
755.65	4184.50
755.76	4239.50
755.88	4200.00
756.00	4264.00
756.12	4220.50
756.23	4133.00
756.35	4171.00
756.47	4228.00
756.59	4173.50
756.70	4143.00
756.82	4163.50
756.94	4165.00
757.06	4232.00
757.17	4176.50
757.29	4169.00
757.41	4107.50
757.53	4168.00
757.64	4149.50
757.76	4160.00
757.88	4204.00
758.00	4201.00
758.11	4141.00
758.23	4087.00
758.35	4166.00
758.47	4108.50
758.58	4193.00
758.70	4085.00
758.82	4095.50
758.94	4070.50
759.05	4149.50
759.17	4054.50
759.29	4118.50
759.40	4165.00
759.52	4054.50
759.64	4098.00
759.76	4092.50
759.87	4115.50
759.99	4120.50
760.11	4064.00
760.23	4082.00
760.34	4111.00
760.46	4120.00
760.58	4063.00
760.70	4088.50
760.81	4109.00
760.93	4116.50
761.05	4121.50
761.16	4064.50
761.28	4078.00
761.40	4051.00
761.52	4022.50
761.63	4088.00
761.75	4028.00
761.87	4008.00
761.98	3984.50
762.10	4045.50
762.22	4029.50
762.34	4078.50
762.45	3999.00
762.57	4042.00
762.69	4119.00
762.81	3984.50
762.92	4036.00
763.04	3954.00
763.16	4017.00
763.27	4053.00
763.39	3964.00
763.51	4007.50
763.63	4033.00
763.74	3980.00
763.86	3912.50
763.98	3955.50
764.09	3904.00
764.21	3986.50
764.33	3912.00
764.44	3917.00
764.56	3963.50
764.68	3952.50
764.80	3940.00
764.91	3862.00
765.03	3993.50
765.15	3925.50
765.26	3928.50
765.38	3886.50
765.50	3946.00
765.62	3944.50
765.73	3926.50
765.85	3911.50
765.97	3857.00
766.08	3921.00
766.20	3877.00
766.32	3886.50
766.43	3922.00
766.55	3918.00
766.67	3850.00
766.79	3873.00
766.90	3848.50
767.02	3809.00
767.14	3830.50
767.25	3822.50
767.37	3943.50
767.49	3854.50
767.60	3830.50
767.72	3901.50
767.84	3902.50
767.95	3848.00
768.07	3815.00
768.19	3843.00
768.31	3856.00
768.42	3851.50
768.54	3837.00
768.66	3813.50
768.77	3839.50
768.89	3825.00
769.01	3796.50
769.12	3835.00
769.24	3836.50
769.36	3802.50
769.47	3775.00
769.59	3739.00
769.71	3782.50
769.82	3748.50
769.94	3738.50
770.06	3742.00
770.17	3803.00
770.29	3768.00
770.41	3786.50
770.53	3761.50
770.64	3723.50
770.76	3717.00
770.88	3759.50
770.99	3747.00
771.11	3726.00
771.23	3750.50
771.34	3716.00
771.46	3800.50
771.58	3759.50
771.69	3717.00
771.81	3701.50
771.93	3740.00
772.04	3656.00
772.16	3715.00
772.28	3691.00
772.39	3733.50
772.51	3696.00
772.63	3724.50
772.74	3644.00
772.86	3684.00
772.98	3785.00
773.09	3641.50
773.21	3655.50
773.33	3663.50
773.44	3670.50
773.56	3661.00
773.68	3643.00
773.79	3665.00
773.91	3619.50
774.03	3640.50
774.14	3620.50
774.26	3655.00
774.38	3570.50
774.49	3585.50
774.61	3591.50
774.73	3603.50
774.84	3578.50
774.96	3589.50
775.08	3591.50
775.19	3604.50
775.31	3625.00
775.43	3604.50
775.54	3542.50
775.66	3520.00
775.77	3628.50
775.89	3535.50
776.01	3578.50
776.12	3598.50
776.24	3538.50
776.36	3472.00
776.47	3511.50
776.59	3547.50
776.71	3567.50
776.82	3465.00
776.94	3501.50
777.06	3513.50
777.17	3546.00
777.29	3488.50
777.41	3490.50
777.52	3539.50
777.64	3498.50
777.75	3513.50
777.87	3417.50
777.99	3497.50
778.10	3518.50
778.22	3472.00
778.34	3447.50
778.45	3457.00
778.57	3510.00
778.69	3486.50
778.80	3447.50
778.92	3579.50
779.04	3441.00
779.15	3454.00
779.27	3473.00
779.38	3461.00
779.50	3512.00
779.62	3369.50
779.73	3418.50
779.85	3349.50
779.97	3506.50
780.08	3411.50
780.20	3405.50
780.31	3441.50
780.43	3446.50
780.55	3392.00
780.66	3437.00
780.78	3434.50
780.90	3478.50
781.01	3345.00
781.13	3407.00
781.25	3356.00
781.36	3385.50
781.48	3307.00
781.59	3339.00
781.71	3360.50
781.83	3374.00
781.94	3323.50
782.06	3304.00
782.18	3382.50
782.29	3341.00
782.41	3285.00
782.52	3367.50
782.64	3372.50
782.76	3324.50
782.87	3315.50
782.99	3302.00
783.10	3435.00
783.22	3414.00
783.34	3270.00
783.45	3277.50
783.57	3284.00
783.69	3249.50
783.80	3319.50
783.92	3309.50
784.03	3274.00
784.15	3249.50
784.27	3252.50
784.38	3247.00
784.50	3241.50
784.61	3269.50
784.73	3233.00
784.85	3250.50
784.96	3207.50
785.08	3290.50
785.19	3278.50
785.31	3242.00
785.43	3214.50
785.54	3197.00
785.66	3262.50
785.77	3230.50
785.89	3216.00
786.01	3183.50
786.12	3204.00
786.24	3229.00
786.35	3262.50
786.47	3229.00
786.59	3164.50
786.70	3140.50
786.82	3178.50
786.93	3214.50
787.05	3189.00
787.17	3177.50
787.28	3166.50
787.40	3178.50
787.51	3170.00
787.63	3199.00
787.75	3099.50
787.86	3154.50
787.98	3201.50
788.09	3139.50
788.21	3161.00
788.33	3179.50
788.44	3140.50
788.56	3108.50
788.67	3162.00
788.79	3116.50
788.91	3096.00
789.02	3098.00
789.14	3080.50
789.25	3171.00
789.37	3122.50
789.48	3070.00
789.60	3113.50
789.72	3095.00
789.83	3104.00
789.95	3060.50
790.06	3019.00
790.18	3041.00
790.30	3109.50
790.41	3085.50
790.53	3031.50
790.64	3023.00
790.76	2996.50
790.87	3045.00
790.99	3042.50
791.11	3033.50
791.22	3009.50
791.34	3020.50
791.45	3077.00
791.57	3033.00
791.68	3003.00
791.80	3002.50
791.92	3050.00
792.03	2948.00
792.15	2971.00
792.26	2954.00
792.38	2954.00
792.49	2988.50
792.61	2944.00
792.73	3000.50
792.84	2974.50
792.96	3093.00
793.07	2952.50
793.19	3695.50
793.30	3032.00
793.42	2984.50
793.54	2904.00
793.65	2936.00
793.77	3132.50
793.88	2938.50
794.00	2910.50
794.11	2952.50
794.23	2884.50
794.34	2930.00
794.46	2893.00
794.58	2889.00
794.69	3002.50
794.81	2984.00
794.92	2910.00
795.04	2896.50
795.15	2979.50
795.27	2945.50
795.39	2924.00
795.50	2883.50
795.62	2888.50
795.73	2871.00
795.85	2865.00
795.96	2879.00
796.08	2935.00
796.19	2867.00
796.31	2889.00
796.42	2823.50
796.54	2846.50
796.66	2887.50
796.77	2836.00
796.89	2807.50
797.00	2908.50
797.12	2791.00
797.23	2838.00
797.35	2852.00
797.46	2885.50
797.58	2870.50
797.69	2859.50
797.81	2793.00
797.93	2796.50
798.04	2812.50
798.16	2818.50
798.27	2828.00
798.39	2780.50
798.50	2769.50
798.62	2782.50
798.73	2779.00
798.85	2871.50
798.96	2790.50
799.08	2820.00
799.19	2798.00
799.31	2766.00
799.43	2763.00
799.54	2750.00
799.66	2800.50
799.77	2803.50
799.89	2727.50
800.00	2699.50
800.12	2751.50
800.23	2800.50
800.35	2837.00
800.46	2683.00
800.58	2667.50
800.69	2741.50
800.81	2712.50
800.92	2724.00
801.04	2739.50
801.16	2648.00
801.27	2676.00
801.39	2682.50
801.50	2693.00
801.62	2707.00
801.73	2740.50
801.85	2718.50
801.96	2662.00
802.08	2763.00
802.19	2751.50
802.31	2653.00
802.42	2699.50
802.54	2755.50
802.65	2711.50
802.77	2640.50
802.88	2729.50
803.00	2632.50
803.11	2781.50
803.23	2695.00
803.34	2673.50
803.46	2672.00
803.57	2628.50
803.69	2693.00
803.80	2623.00
803.92	2680.50
804.03	2641.50
804.15	2652.50
804.26	2673.50
804.38	2683.50
804.50	2598.00
804.61	2630.00
804.73	2612.00
804.84	2617.50
804.96	2535.00
805.07	2584.00
805.19	2569.00
805.30	2604.00
805.42	2611.50
805.53	2574.00
805.65	2561.50
805.76	2524.50
805.88	2500.50
805.99	2550.00
806.11	2556.00
806.22	2503.00
806.34	2502.00
806.45	2504.50
806.57	2484.00
806.68	2509.00
806.80	2431.50
806.91	2432.00
807.03	2403.00
807.14	2394.00
807.26	2396.50
807.37	2392.00
807.49	2442.50
807.60	2408.00
807.72	2472.00
807.83	2486.50
807.95	2415.50
808.06	2415.00
808.17	2382.50
808.29	2386.50
808.40	2338.50
808.52	2339.00
808.63	2333.50
808.75	2318.50
808.86	2312.00
808.98	2330.00
809.09	2255.50
809.21	2307.00
809.32	2266.50
809.44	2278.00
809.55	2215.50
809.67	2239.00
809.78	2215.50
809.90	2259.00
810.01	2268.00
810.13	2167.50
810.24	2213.00
810.36	2132.00
810.47	2151.50
810.59	2172.50
810.70	2153.00
810.82	2143.50
810.93	2079.50
811.05	2082.00
811.16	2087.00
811.27	2078.50
811.39	2079.50
811.50	2109.00
811.62	2012.50
811.73	1986.00
811.85	2055.50
811.96	2020.00
812.08	2015.50
812.19	1998.50
812.31	1987.50
812.42	1979.00
812.54	1956.00
812.65	2011.00
812.77	2005.50
812.88	1988.00
813.00	1971.50
813.11	1927.50
813.22	1873.50
813.34	1903.00
813.45	1907.00
813.57	1935.50
813.68	1952.50
813.80	1872.50
813.91	1826.00
814.03	1828.00
814.14	1923.50
814.26	1813.50
814.37	1807.50
814.49	1787.50
814.60	1760.50
814.71	1763.00
814.83	1795.50
814.94	1731.50
815.06	1744.00
815.17	1742.00
815.29	1732.50
815.40	1689.00
815.52	1807.50
815.63	1689.50
815.75	1666.50
815.86	1698.00
815.97	1623.00
816.09	1659.50
816.20	1684.00
816.32	1654.50
816.43	1594.00
816.55	1645.00
816.66	1595.00
816.78	1684.50
816.89	1607.50
817.00	1607.50
817.12	1580.00
817.23	1571.50
817.35	1610.50
817.46	1568.50
817.58	1529.50
817.69	1646.50
817.81	1535.00
817.92	1559.50
818.03	1515.00
818.15	1503.50
818.26	1449.50
818.38	1437.50
818.49	1466.50
818.61	1469.00
818.72	1427.00
818.83	2246.00
818.95	1546.50
819.06	1396.50
819.18	1386.50
819.29	1431.00
819.41	1424.50
819.52	1407.50
819.64	1391.50
819.75	1346.00
819.86	1326.00
819.98	1335.50
820.09	1391.00
820.21	1323.50
820.32	1301.00
820.44	1328.00
820.55	1371.00
820.66	1289.50
820.78	1324.00
820.89	1295.50
821.01	1305.50
821.12	1288.50
821.23	1282.50
821.35	1241.50
821.46	1272.00
821.58	1231.00
821.69	1217.50
821.81	1180.00
821.92	1262.00
822.03	1196.00
822.15	1211.50
822.26	1134.00
822.38	1149.50
822.49	1206.50
822.61	1173.50
822.72	1169.50
822.83	1206.50
822.95	1145.00
823.06	1134.00
823.18	1165.50
823.29	1190.00
823.40	1148.50
823.52	1085.00
823.63	1040.00
823.75	1179.50
823.86	1078.50
823.97	1024.50
824.09	1095.00
824.20	1025.50
824.32	1063.50
824.43	1045.50
824.55	1076.50
824.66	1123.50
824.77	1016.50
824.89	1039.50
825.00	1066.00
825.12	1009.50
825.23	1030.50
825.34	954.00
825.46	961.50
825.57	1021.50
825.69	960.50
825.80	903.00
825.91	932.00
826.03	912.50
826.14	969.00
826.26	911.50
826.37	937.00
826.48	910.00
826.60	928.00
826.71	889.00
826.83	920.00
826.94	914.50
827.05	944.50
827.17	929.50
827.28	877.00
827.39	869.00
827.51	854.50
827.62	872.00
827.74	863.00
827.85	860.50
827.96	831.00
828.08	852.50
828.19	939.00
828.31	839.50
828.42	800.00
828.53	863.00
828.65	876.50
828.76	883.00
828.87	852.50
828.99	812.50
