Wavelength (nm)	Intensity
377.35	815.00
377.48	598.67
377.62	635.33
377.75	634.33
377.88	853.67
378.02	834.00
378.15	826.33
378.28	802.33
378.41	893.67
378.55	855.33
378.68	824.67
378.81	808.00
378.95	842.00
379.08	842.67
379.21	806.33
379.35	856.00
379.48	873.33
379.61	917.67
379.74	832.33
379.88	819.67
380.01	902.67
380.14	977.33
380.28	883.33
380.41	800.67
380.54	864.33
380.68	865.33
380.81	774.33
380.94	872.67
381.07	929.33
381.21	919.00
381.34	833.33
381.47	780.67
381.61	995.67
381.74	852.67
381.87	798.00
382.00	856.67
382.14	938.33
382.27	890.67
382.40	811.00
382.54	901.67
382.67	925.33
382.80	814.00
382.93	803.67
383.07	837.67
383.20	842.67
383.33	874.00
383.47	807.33
383.60	796.67
383.73	1001.00
383.86	885.33
384.00	832.33
384.13	826.33
384.26	883.67
384.40	901.33
384.53	837.33
384.66	873.00
384.79	859.00
384.93	828.00
385.06	830.00
385.19	848.67
385.33	970.67
385.46	875.33
385.59	814.67
385.72	849.00
385.86	808.67
385.99	828.00
386.12	828.33
386.25	807.00
386.39	888.00
386.52	903.33
386.65	841.67
386.79	818.33
386.92	838.00
387.05	932.00
387.18	794.00
387.32	801.33
387.45	886.67
387.58	849.67
387.71	832.33
387.85	816.67
387.98	857.33
388.11	877.00
388.25	856.67
388.38	839.00
388.51	871.67
388.64	893.33
388.78	814.33
388.91	792.33
389.04	846.00
389.17	967.33
389.31	855.67
389.44	874.33
389.57	913.33
389.70	877.33
389.84	820.00
389.97	807.67
390.10	829.00
390.24	891.00
390.37	826.33
390.50	812.67
390.63	913.67
390.77	854.33
390.90	843.00
391.03	830.33
391.16	802.67
391.30	828.00
391.43	822.33
391.56	816.67
391.69	816.33
391.83	905.00
391.96	840.33
392.09	817.67
392.22	943.33
392.36	872.00
392.49	808.00
392.62	838.33
392.75	876.33
392.89	918.00
393.02	806.00
393.15	802.33
393.28	794.00
393.42	946.67
393.55	800.33
393.68	826.00
393.81	776.00
393.95	834.33
394.08	809.67
394.21	815.00
394.34	898.00
394.48	884.33
394.61	881.00
394.74	843.67
394.87	904.33
395.01	873.33
395.14	871.33
395.27	809.33
395.40	955.00
395.54	947.67
395.67	851.00
395.80	825.00
395.93	875.00
396.07	821.33
396.20	822.00
396.33	765.33
396.46	819.33
396.59	857.00
396.73	832.67
396.86	800.67
396.99	906.33
397.12	866.67
397.26	850.00
397.39	837.00
397.52	1170.67
397.65	957.67
397.79	838.33
397.92	828.33
398.05	899.67
398.18	833.33
398.32	836.00
398.45	869.67
398.58	874.00
398.71	879.33
398.84	798.67
398.98	829.00
399.11	885.00
399.24	876.33
399.37	831.00
399.51	800.00
399.64	857.33
399.77	857.00
399.90	839.00
400.03	828.33
400.17	797.67
400.30	910.33
400.43	864.67
400.56	838.33
400.70	848.33
400.83	814.00
400.96	813.67
401.09	843.67
401.23	858.00
401.36	925.00
401.49	818.00
401.62	830.33
401.75	842.67
401.89	818.67
402.02	836.00
402.15	840.67
402.28	868.33
402.41	877.67
402.55	815.33
402.68	826.00
402.81	913.67
402.94	889.33
403.08	811.33
403.21	798.33
403.34	888.67
403.47	885.00
403.60	822.67
403.74	869.33
403.87	903.67
404.00	823.00
404.13	816.00
404.26	792.00
404.40	810.33
404.53	872.67
404.66	829.67
404.79	794.00
404.93	882.33
405.06	856.33
405.19	791.00
405.32	840.67
405.45	871.33
405.59	893.33
405.72	844.67
405.85	808.33
405.98	1022.67
406.11	822.33
406.25	803.00
406.38	819.67
406.51	875.00
406.64	840.67
406.77	793.67
406.91	789.00
407.04	868.67
407.17	847.00
407.30	856.00
407.43	824.67
407.57	925.67
407.70	909.00
407.83	813.67
407.96	838.00
408.09	804.33
408.23	946.33
408.36	837.00
408.49	820.67
408.62	965.33
408.75	866.33
408.89	822.00
409.02	861.00
409.15	857.67
409.28	929.67
409.41	859.33
409.55	816.33
409.68	972.67
409.81	865.67
409.94	818.67
410.07	845.67
410.20	870.00
410.34	838.67
410.47	845.00
410.60	840.67
410.73	885.67
410.86	827.67
411.00	851.00
411.13	811.00
411.26	859.33
411.39	865.67
411.52	871.67
411.66	821.33
411.79	830.33
411.92	820.67
412.05	830.33
412.18	823.67
412.31	874.67
412.45	878.33
412.58	879.67
412.71	795.00
412.84	859.67
412.97	935.67
413.11	850.00
413.24	851.33
413.37	890.00
413.50	960.00
413.63	860.33
413.76	820.33
413.90	896.00
414.03	833.67
414.16	826.00
414.29	860.00
414.42	857.00
414.56	975.00
414.69	827.67
414.82	832.67
414.95	844.33
415.08	869.00
415.21	830.67
415.35	861.00
415.48	769.33
415.61	898.00
415.74	893.00
415.87	793.33
416.00	874.00
416.14	984.33
416.27	849.00
416.40	813.00
416.53	848.00
416.66	884.67
416.79	848.00
416.93	805.67
417.06	918.33
417.19	862.00
417.32	824.33
417.45	823.33
417.58	799.67
417.72	909.67
417.85	818.00
417.98	842.67
418.11	887.67
418.24	838.67
418.37	824.33
418.51	838.00
418.64	859.33
418.77	933.00
418.90	853.33
419.03	795.67
419.16	871.67
419.29	902.67
419.43	817.33
419.56	805.67
419.69	968.33
419.82	900.67
419.95	829.33
420.08	881.67
420.22	927.67
420.35	991.00
420.48	878.33
420.61	820.33
420.74	787.67
420.87	886.33
421.00	812.00
421.14	825.00
421.27	891.00
421.40	939.00
421.53	859.00
421.66	838.67
421.79	844.33
421.93	846.33
422.06	828.33
422.19	807.00
422.32	892.33
422.45	907.67
422.58	862.00
422.71	826.00
422.85	900.00
422.98	897.33
423.11	796.00
423.24	789.00
423.37	813.00
423.50	825.33
423.63	856.67
423.77	805.33
423.90	819.67
424.03	873.33
424.16	868.67
424.29	845.33
424.42	788.33
424.55	816.00
424.69	816.00
424.82	839.33
424.95	870.33
425.08	822.33
425.21	862.33
425.34	824.00
425.47	850.33
425.60	881.67
425.74	787.67
425.87	843.67
426.00	845.67
426.13	870.00
426.26	806.00
426.39	812.67
426.52	845.67
426.66	925.67
426.79	873.00
426.92	823.00
427.05	954.00
427.18	915.00
427.31	833.33
427.44	826.33
427.57	813.00
427.71	850.33
427.84	805.33
427.97	834.00
428.10	915.33
428.23	858.67
428.36	827.67
428.49	759.00
428.62	983.00
428.76	948.33
428.89	856.00
429.02	801.67
429.15	855.00
429.28	955.67
429.41	819.00
429.54	829.67
429.67	827.00
429.81	886.00
429.94	838.33
430.07	817.33
430.20	900.00
430.33	931.00
430.46	823.00
430.59	813.00
430.72	852.00
430.85	799.00
430.99	831.00
431.12	810.67
431.25	904.67
431.38	927.33
431.51	844.67
431.64	845.33
431.77	931.00
431.90	935.67
432.03	840.67
432.17	814.67
432.30	859.33
432.43	885.00
432.56	838.33
432.69	866.67
432.82	861.00
432.95	926.33
433.08	848.67
433.21	842.67
433.35	837.67
433.48	856.67
433.61	802.67
433.74	837.33
433.87	819.67
434.00	890.33
434.13	819.67
434.26	870.00
434.39	877.00
434.53	892.33
434.66	841.67
434.79	841.67
434.92	838.67
435.05	920.00
435.18	818.33
435.31	855.67
435.44	922.00
435.57	865.00
435.70	841.00
435.84	807.33
435.97	921.33
436.10	965.67
436.23	825.33
436.36	812.33
436.49	843.00
436.62	877.00
436.75	827.67
436.88	868.00
437.01	835.00
437.14	807.00
437.28	787.67
437.41	816.67
437.54	919.33
437.67	898.33
437.80	823.00
437.93	790.33
438.06	986.33
438.19	902.33
438.32	810.00
438.45	816.00
438.58	886.00
438.72	943.67
438.85	888.67
438.98	832.67
439.11	884.33
439.24	939.00
439.37	908.00
439.50	862.00
439.63	904.67
439.76	836.00
439.89	815.67
440.02	820.67
440.15	874.67
440.29	933.67
440.42	849.00
440.55	851.67
440.68	944.33
440.81	994.67
440.94	860.67
441.07	844.00
441.20	970.00
441.33	879.67
441.46	828.67
441.59	815.67
441.72	850.67
441.85	873.00
441.99	887.33
442.12	885.67
442.25	952.67
442.38	880.00
442.51	865.33
442.64	809.00
442.77	867.00
442.90	844.67
443.03	804.33
443.16	822.00
443.29	864.67
443.42	936.67
443.55	830.00
443.68	854.33
443.82	792.33
443.95	835.67
444.08	841.00
444.21	838.00
444.34	823.00
444.47	853.33
444.60	847.00
444.73	858.33
444.86	860.67
444.99	933.67
445.12	874.33
445.25	856.67
445.38	876.33
445.51	904.33
445.64	849.33
445.78	818.67
445.91	796.67
446.04	977.00
446.17	890.67
446.30	793.67
446.43	880.33
446.56	871.00
446.69	821.00
446.82	820.67
446.95	902.33
447.08	918.67
447.21	860.67
447.34	824.67
447.47	912.67
447.60	902.67
447.73	851.00
447.86	878.33
447.99	871.00
448.13	877.33
448.26	883.33
448.39	838.67
448.52	909.33
448.65	912.00
448.78	846.00
448.91	838.67
449.04	899.00
449.17	848.00
449.30	873.67
449.43	861.00
449.56	861.33
449.69	934.00
449.82	840.33
449.95	804.33
450.08	918.33
450.21	898.00
450.34	849.00
450.47	847.33
450.60	910.67
450.73	874.00
450.87	840.00
451.00	871.67
451.13	903.67
451.26	1033.33
451.39	839.00
451.52	869.00
451.65	847.67
451.78	842.67
451.91	827.67
452.04	822.00
452.17	957.67
452.30	950.33
452.43	821.67
452.56	833.67
452.69	917.33
452.82	825.33
452.95	882.67
453.08	817.00
453.21	777.33
453.34	909.33
453.47	820.33
453.60	902.33
453.73	956.33
453.86	899.67
453.99	871.00
454.12	869.00
454.25	848.33
454.38	874.67
454.52	816.00
454.65	823.33
454.78	831.33
454.91	798.33
455.04	822.33
455.17	809.00
455.30	831.33
455.43	934.00
455.56	839.00
455.69	810.67
455.82	888.33
455.95	869.67
456.08	813.00
456.21	808.67
456.34	797.67
456.47	786.33
456.60	831.67
456.73	825.33
456.86	843.33
456.99	898.00
457.12	822.33
457.25	836.33
457.38	921.67
457.51	891.33
457.64	862.33
457.77	831.00
457.90	857.00
458.03	842.33
458.16	840.33
458.29	845.00
458.42	852.67
458.55	803.33
458.68	814.67
458.81	840.00
458.94	924.67
459.07	969.67
459.20	797.67
459.33	817.67
459.46	927.67
459.59	956.67
459.72	915.33
459.85	849.00
459.98	943.33
460.11	900.33
460.24	848.67
460.37	811.33
460.50	905.33
460.63	865.67
460.76	841.67
460.89	866.00
461.02	888.33
461.15	892.33
461.28	843.33
461.41	831.67
461.54	946.33
461.67	830.00
461.80	866.67
461.93	899.00
462.06	892.33
462.19	919.00
462.32	841.00
462.45	826.67
462.58	883.67
462.71	834.00
462.84	844.00
462.97	782.33
463.10	850.33
463.23	871.67
463.36	890.33
463.49	855.33
463.62	810.33
463.75	897.33
463.88	844.00
464.01	851.67
464.14	821.00
464.27	963.67
464.40	851.67
464.53	842.00
464.66	897.00
464.79	876.33
464.92	857.00
465.05	814.00
465.18	863.67
465.31	863.33
465.44	848.00
465.57	822.00
465.70	854.00
465.83	985.67
465.96	848.00
466.09	825.00
466.22	913.33
466.35	896.00
466.48	829.00
466.61	833.00
466.74	860.33
466.87	905.33
467.00	888.00
467.13	878.33
467.26	907.33
467.39	817.33
467.52	811.67
467.65	843.67
467.78	933.33
467.91	866.33
468.04	857.33
468.17	831.67
468.30	851.67
468.43	824.33
468.56	837.67
468.69	882.00
468.82	900.00
468.95	834.67
469.08	843.33
469.21	858.33
469.34	895.33
469.47	983.33
469.60	937.00
469.73	861.67
469.86	877.00
469.99	917.67
470.11	827.00
470.24	838.33
470.37	913.67
470.50	875.67
470.63	831.33
470.76	852.67
470.89	908.67
471.02	981.00
471.15	844.67
471.28	845.67
471.41	983.67
471.54	903.33
471.67	846.67
471.80	790.33
471.93	911.00
472.06	884.33
472.19	846.33
472.32	816.67
472.45	979.67
472.58	929.67
472.71	865.67
472.84	837.67
472.97	845.33
473.10	829.00
473.23	905.67
473.36	799.00
473.49	920.67
473.62	920.00
473.74	884.33
473.87	898.33
474.00	844.00
474.13	851.33
474.26	871.00
474.39	897.33
474.52	865.00
474.65	853.00
474.78	861.33
474.91	811.67
475.04	896.33
475.17	995.00
475.30	892.33
475.43	886.67
475.56	925.67
475.69	870.67
475.82	881.33
475.95	830.33
476.08	953.67
476.21	879.00
476.34	916.67
476.46	896.67
476.59	939.33
476.72	861.00
476.85	848.67
476.98	826.67
477.11	930.33
477.24	873.33
477.37	807.67
477.50	843.00
477.63	880.67
477.76	840.33
477.89	799.67
478.02	827.00
478.15	869.67
478.28	861.33
478.41	885.00
478.54	847.33
478.66	914.67
478.79	864.67
478.92	850.00
479.05	861.33
479.18	871.67
479.31	852.67
479.44	844.67
479.57	839.67
479.70	860.33
479.83	884.33
479.96	862.33
480.09	886.67
480.22	1019.33
480.35	1002.00
480.48	922.00
480.60	888.00
480.73	861.00
480.86	909.67
480.99	858.33
481.12	861.67
481.25	883.67
481.38	946.33
481.51	858.00
481.64	869.33
481.77	907.67
481.90	878.33
482.03	866.67
482.16	857.33
482.29	940.00
482.41	896.00
482.54	900.33
482.67	853.67
482.80	886.00
482.93	938.33
483.06	850.33
483.19	927.67
483.32	911.00
483.45	878.33
483.58	889.00
483.71	904.00
483.84	936.33
483.97	909.67
484.09	877.33
484.22	864.33
484.35	848.67
484.48	836.00
484.61	857.00
484.74	868.67
484.87	909.33
485.00	841.00
485.13	896.00
485.26	845.00
485.39	922.33
485.52	875.33
485.64	937.67
485.77	897.00
485.90	954.00
486.03	851.33
486.16	899.33
486.29	846.67
486.42	868.33
486.55	903.33
486.68	875.67
486.81	907.00
486.94	906.33
487.06	880.33
487.19	901.67
487.32	900.00
487.45	895.67
487.58	867.33
487.71	885.33
487.84	845.67
487.97	933.67
488.10	946.67
488.23	861.00
488.35	823.00
488.48	884.67
488.61	841.33
488.74	858.67
488.87	868.33
489.00	899.67
489.13	994.67
489.26	914.67
489.39	917.33
489.52	933.33
489.64	928.67
489.77	895.00
489.90	885.67
490.03	901.33
490.16	876.00
490.29	866.67
490.42	870.67
490.55	899.33
490.68	858.67
490.81	865.67
490.93	827.00
491.06	967.00
491.19	930.33
491.32	898.33
491.45	925.00
491.58	843.00
491.71	882.00
491.84	869.33
491.97	871.00
492.09	964.67
492.22	920.67
492.35	907.67
492.48	926.67
492.61	912.67
492.74	885.67
492.87	900.67
493.00	877.00
493.12	875.00
493.25	891.67
493.38	883.67
493.51	868.00
493.64	857.33
493.77	901.33
493.90	905.67
494.03	915.33
494.16	966.00
494.28	968.00
494.41	879.00
494.54	881.00
494.67	1020.00
494.80	972.33
494.93	899.67
495.06	908.67
495.19	936.33
495.31	914.33
495.44	879.67
495.57	857.67
495.70	928.67
495.83	895.67
495.96	857.33
496.09	906.67
496.22	984.67
496.34	1015.00
496.47	892.33
496.60	908.33
496.73	951.00
496.86	949.33
496.99	864.33
497.12	903.33
497.24	837.67
497.37	903.67
497.50	878.33
497.63	865.00
497.76	898.00
497.89	974.00
498.02	934.00
498.15	817.67
498.27	912.00
498.40	961.00
498.53	977.33
498.66	906.33
498.79	960.67
498.92	868.33
499.05	911.67
499.17	899.33
499.30	934.67
499.43	1001.33
499.56	922.33
499.69	855.33
499.82	928.00
499.95	884.33
500.07	871.00
500.20	897.33
500.33	950.33
500.46	1055.33
500.59	899.00
500.72	917.00
500.85	971.00
500.97	962.00
501.10	946.33
501.23	864.33
501.36	917.00
501.49	982.67
501.62	923.33
501.75	909.00
501.87	967.67
502.00	859.00
502.13	916.00
502.26	909.00
502.39	892.00
502.52	901.67
502.64	858.33
502.77	886.33
502.90	941.00
503.03	919.00
503.16	882.00
503.29	884.33
503.42	964.00
503.54	920.00
503.67	899.00
503.80	914.00
503.93	955.67
504.06	872.00
504.19	902.33
504.31	958.67
504.44	927.33
504.57	941.67
504.70	915.67
504.83	878.67
504.96	932.33
505.08	919.00
505.21	913.00
505.34	1015.33
505.47	983.67
505.60	956.33
505.73	955.00
505.85	947.67
505.98	1041.00
506.11	917.33
506.24	883.67
506.37	876.33
506.50	924.33
506.62	971.33
506.75	895.67
506.88	886.33
507.01	934.33
507.14	869.67
507.27	904.67
507.39	885.33
507.52	893.33
507.65	896.00
507.78	914.33
507.91	879.33
508.04	980.00
508.16	972.33
508.29	925.00
508.42	903.67
508.55	895.33
508.68	891.67
508.81	945.00
508.93	888.33
509.06	903.00
509.19	950.67
509.32	931.00
509.45	922.33
509.57	943.33
509.70	899.00
509.83	912.33
509.96	870.00
510.09	930.67
510.22	916.00
510.34	914.67
510.47	907.67
510.60	1036.00
510.73	937.33
510.86	942.00
510.98	906.67
511.11	904.67
511.24	970.00
511.37	944.00
511.50	900.00
511.63	940.33
511.75	944.00
511.88	911.67
512.01	937.33
512.14	931.33
512.27	926.67
512.39	915.00
512.52	901.33
512.65	931.67
512.78	898.33
512.91	927.33
513.03	925.00
513.16	971.00
513.29	934.00
513.42	913.33
513.55	880.33
513.67	953.33
513.80	872.00
513.93	901.00
514.06	904.33
514.19	939.00
514.31	942.33
514.44	966.67
514.57	924.33
514.70	936.00
514.83	985.00
514.95	905.67
515.08	924.00
515.21	948.00
515.34	935.67
515.47	928.67
515.59	895.00
515.72	958.00
515.85	955.67
515.98	975.33
516.11	936.33
516.23	970.00
516.36	1003.67
516.49	955.00
516.62	930.00
516.75	1000.33
516.87	1000.00
517.00	898.00
517.13	944.33
517.26	990.00
517.39	957.33
517.51	867.67
517.64	926.00
517.77	1007.33
517.90	892.67
518.02	917.67
518.15	887.00
518.28	846.33
518.41	931.33
518.54	920.67
518.66	936.67
518.79	897.00
518.92	912.67
519.05	893.33
519.18	906.00
519.30	962.00
519.43	891.33
519.56	910.67
519.69	915.00
519.81	974.33
519.94	922.33
520.07	859.33
520.20	904.67
520.33	935.67
520.45	1003.33
520.58	924.33
520.71	937.33
520.84	985.33
520.96	951.00
521.09	919.67
521.22	900.00
521.35	969.00
521.48	976.67
521.60	897.67
521.73	920.00
521.86	1002.67
521.99	1034.67
522.11	949.33
522.24	919.00
522.37	967.67
522.50	957.33
522.62	1000.67
522.75	878.67
522.88	946.67
523.01	914.00
523.14	938.00
523.26	930.67
523.39	1018.00
523.52	920.67
523.65	1036.33
523.77	964.00
523.90	942.00
524.03	934.33
524.16	928.33
524.28	920.00
524.41	939.00
524.54	934.33
524.67	894.33
524.79	906.67
524.92	967.67
525.05	1018.00
525.18	899.67
525.31	976.67
525.43	900.33
525.56	1059.67
525.69	906.33
525.82	861.33
525.94	990.67
526.07	989.67
526.20	960.00
526.33	970.67
526.45	1076.33
526.58	1053.33
526.71	952.67
526.84	935.33
526.96	965.67
527.09	918.67
527.22	924.33
527.35	926.67
527.47	898.33
527.60	1018.00
527.73	897.00
527.86	957.33
527.98	960.00
528.11	983.67
528.24	897.33
528.37	922.33
528.49	888.33
528.62	941.33
528.75	976.00
528.88	908.33
529.00	972.33
529.13	1004.67
529.26	937.33
529.39	970.33
529.51	1086.33
529.64	1051.00
529.77	926.00
529.90	922.00
530.02	933.33
530.15	922.67
530.28	871.67
530.40	914.67
530.53	934.67
530.66	963.67
530.79	920.33
530.91	938.33
531.04	927.33
531.17	962.33
531.30	938.00
531.42	934.33
531.55	950.00
531.68	1017.00
531.81	918.33
531.93	933.67
532.06	959.00
532.19	909.67
532.31	939.33
532.44	939.00
532.57	969.00
532.70	913.33
532.82	943.00
532.95	963.33
533.08	1013.67
533.21	987.33
533.33	907.33
533.46	922.00
533.59	943.33
533.71	1062.33
533.84	955.33
533.97	923.33
534.10	921.00
534.22	921.33
534.35	945.67
534.48	950.00
534.61	976.00
534.73	891.67
534.86	916.00
534.99	941.00
535.11	1013.67
535.24	964.00
535.37	920.67
535.50	900.33
535.62	917.00
535.75	1016.67
535.88	944.00
536.00	916.67
536.13	935.00
536.26	935.33
536.39	919.67
536.51	887.33
536.64	971.00
536.77	963.00
536.89	944.33
537.02	954.00
537.15	979.33
537.28	955.33
537.40	950.33
537.53	918.33
537.66	1002.00
537.78	966.33
537.91	901.00
538.04	925.00
538.17	1000.67
538.29	971.00
538.42	1018.33
538.55	996.67
538.67	988.00
538.80	929.00
538.93	950.00
539.05	943.67
539.18	1022.67
539.31	998.67
539.44	951.00
539.56	876.00
539.69	942.67
539.82	924.67
539.94	907.00
540.07	911.33
540.20	1028.67
540.32	925.00
540.45	930.67
540.58	935.67
540.71	1011.67
540.83	904.00
540.96	930.33
541.09	937.00
541.21	1041.00
541.34	1023.00
541.47	914.33
541.59	945.00
541.72	1036.00
541.85	1110.67
541.98	1005.00
542.10	941.67
542.23	975.00
542.36	1086.67
542.48	963.00
542.61	953.00
542.74	915.67
542.86	941.33
542.99	937.00
543.12	923.33
543.24	975.00
543.37	898.67
543.50	945.33
543.62	920.00
543.75	950.33
543.88	939.67
544.01	947.67
544.13	972.67
544.26	987.67
544.39	928.33
544.51	924.33
544.64	917.33
544.77	991.67
544.89	943.33
545.02	952.00
545.15	936.33
545.27	1050.33
545.40	1016.33
545.53	983.67
545.65	977.00
545.78	888.67
545.91	915.67
546.03	945.00
546.16	954.67
546.29	941.33
546.41	920.00
546.54	930.67
546.67	921.67
546.79	985.00
546.92	1047.33
547.05	901.67
547.17	957.33
547.30	935.33
547.43	1002.00
547.56	921.00
547.68	938.33
547.81	913.67
547.94	976.33
548.06	947.00
548.19	922.67
548.32	1025.33
548.44	966.33
548.57	980.67
548.70	1004.33
548.82	1011.00
548.95	994.00
549.08	951.67
549.20	939.67
549.33	1046.00
549.45	971.33
549.58	937.67
549.71	903.33
549.83	1030.33
549.96	912.33
550.09	950.00
550.21	939.33
550.34	988.33
550.47	957.67
550.59	948.67
550.72	885.33
550.85	962.00
550.97	1033.00
551.10	938.00
551.23	945.67
551.35	1041.67
551.48	978.00
551.61	962.00
551.73	946.67
551.86	1039.67
551.99	1032.67
552.11	956.00
552.24	986.67
552.37	973.33
552.49	932.67
552.62	941.00
552.75	986.67
552.87	950.67
553.00	945.67
553.12	971.00
553.25	947.67
553.38	992.33
553.50	1016.00
553.63	956.00
553.76	894.67
553.88	962.00
554.01	963.67
554.14	958.00
554.26	981.00
554.39	1053.67
554.52	971.67
554.64	965.33
554.77	956.33
554.89	1003.33
555.02	1025.33
555.15	978.00
555.27	960.33
555.40	972.67
555.53	1042.33
555.65	958.67
555.78	925.33
555.91	1003.00
556.03	1058.00
556.16	939.33
556.29	972.00
556.41	1042.33
556.54	1043.67
556.66	965.00
556.79	946.33
556.92	990.00
557.04	994.33
557.17	949.33
557.30	941.33
557.42	968.00
557.55	961.33
557.67	989.00
557.80	967.33
557.93	971.67
558.05	984.00
558.18	925.67
558.31	966.67
558.43	1028.67
558.56	991.00
558.68	970.67
558.81	923.00
558.94	961.00
559.06	1093.00
559.19	956.33
559.32	965.67
559.44	937.00
559.57	971.33
559.69	940.67
559.82	944.67
559.95	956.00
560.07	955.33
560.20	895.00
560.33	962.00
560.45	993.67
560.58	910.33
560.70	961.00
560.83	931.67
560.96	950.67
561.08	966.33
561.21	997.00
561.33	930.00
561.46	925.00
561.59	1011.67
561.71	941.33
561.84	974.00
561.97	936.33
562.09	1007.00
562.22	940.67
562.34	936.33
562.47	1009.00
562.60	995.67
562.72	965.33
562.85	964.67
562.97	973.67
563.10	966.00
563.23	934.67
563.35	938.00
563.48	988.33
563.60	975.67
563.73	979.67
563.86	924.33
563.98	948.33
564.11	975.67
564.23	961.33
564.36	1038.33
564.49	975.67
564.61	1051.00
564.74	987.33
564.86	941.33
564.99	1029.00
565.12	1018.33
565.24	1017.33
565.37	1009.67
565.49	1037.33
565.62	1050.00
565.75	1007.33
565.87	938.33
566.00	1120.33
566.12	1051.67
566.25	982.67
566.38	997.33
566.50	993.33
566.63	1039.33
566.75	970.00
566.88	946.67
567.01	942.33
567.13	971.33
567.26	973.67
567.38	954.67
567.51	1023.33
567.64	960.33
567.76	995.00
567.89	982.67
568.01	942.00
568.14	935.00
568.26	980.00
568.39	974.33
568.52	969.67
568.64	1022.67
568.77	967.00
568.89	951.67
569.02	959.33
569.15	975.33
569.27	956.67
569.40	1000.67
569.52	1023.67
569.65	958.67
569.77	971.00
569.90	938.33
570.03	927.00
570.15	1057.33
570.28	972.67
570.40	983.00
570.53	977.67
570.66	1063.33
570.78	1021.00
570.91	984.00
571.03	950.33
571.16	995.33
571.28	930.00
571.41	927.00
571.54	933.33
571.66	926.00
571.79	958.33
571.91	957.00
572.04	931.33
572.16	993.00
572.29	1016.67
572.42	963.33
572.54	996.00
572.67	953.67
572.79	993.00
572.92	970.00
573.04	997.33
573.17	1031.33
573.29	990.33
573.42	964.67
573.55	1017.00
573.67	1006.67
573.80	990.00
573.92	948.00
574.05	993.00
574.17	1046.00
574.30	976.00
574.43	964.00
574.55	962.33
574.68	985.33
574.80	965.00
574.93	959.33
575.05	953.33
575.18	962.33
575.30	970.33
575.43	1013.67
575.56	1045.67
575.68	1014.67
575.81	965.33
575.93	947.33
576.06	1024.33
576.18	1034.67
576.31	976.00
576.43	953.67
576.56	1091.67
576.69	1048.00
576.81	991.67
576.94	962.33
577.06	994.67
577.19	1022.67
577.31	1001.33
577.44	1008.67
577.56	1037.00
577.69	1011.67
577.82	1008.00
577.94	951.67
578.07	927.00
578.19	1007.67
578.32	1007.00
578.44	965.00
578.57	981.67
578.69	1044.33
578.82	986.00
578.94	1027.67
579.07	1034.67
579.19	1030.33
579.32	1001.00
579.45	989.67
579.57	981.00
579.70	951.33
579.82	991.00
579.95	969.33
580.07	1060.67
580.20	983.00
580.32	984.33
580.45	1017.33
580.57	1035.33
580.70	1030.33
580.82	1001.67
580.95	1014.67
581.08	958.00
581.20	1053.33
581.33	978.00
581.45	992.00
581.58	1006.67
581.70	1023.33
581.83	904.00
581.95	989.33
582.08	1020.33
582.20	983.67
582.33	978.00
582.45	962.33
582.58	986.67
582.70	1017.67
582.83	953.33
582.95	975.67
583.08	1045.00
583.21	1049.00
583.33	994.33
583.46	956.00
583.58	951.67
583.71	1040.67
583.83	1009.00
583.96	1012.67
584.08	1030.67
584.21	1037.67
584.33	1017.67
584.46	988.33
584.58	948.33
584.71	1042.00
584.83	1024.00
584.96	984.33
585.08	973.67
585.21	1104.67
585.33	1058.67
585.46	1022.00
585.58	1054.00
585.71	974.67
585.83	991.33
585.96	1023.00
586.08	1023.00
586.21	1026.33
586.33	1040.00
586.46	955.00
586.59	1020.00
586.71	963.67
586.84	1010.67
586.96	995.67
587.09	936.00
587.21	990.00
587.34	1023.00
587.46	966.33
587.59	948.67
587.71	994.33
587.84	979.67
587.96	938.67
588.09	950.00
588.21	1024.33
588.34	969.33
588.46	995.67
588.59	971.33
588.71	1012.67
588.84	1011.67
588.96	991.00
589.09	1102.00
589.21	1005.33
589.34	975.67
589.46	979.00
589.59	1006.00
589.71	1069.00
589.84	955.00
589.96	972.67
590.09	992.33
590.21	1026.33
590.34	1006.33
590.46	1000.00
590.59	978.67
590.71	995.33
590.84	1033.33
590.96	968.00
591.09	1033.00
591.21	1005.00
591.34	986.00
591.46	986.00
591.59	1069.00
591.71	1036.33
591.83	997.00
591.96	953.33
592.08	978.67
592.21	1027.00
592.33	1000.67
592.46	989.67
592.58	1017.33
592.71	1045.00
592.83	1098.67
592.96	1048.67
593.08	1062.33
593.21	963.33
593.33	954.67
593.46	985.00
593.58	986.67
593.71	1045.33
593.83	1049.00
593.96	969.00
594.08	1128.67
594.21	1008.33
594.33	979.33
594.46	962.67
594.58	944.33
594.71	924.00
594.83	996.33
594.96	988.33
595.08	1163.00
595.20	1047.33
595.33	1011.00
595.45	967.33
595.58	1101.00
595.70	1016.67
595.83	989.67
595.95	1001.00
596.08	1021.67
596.20	959.33
596.33	944.33
596.45	990.67
596.58	974.00
596.70	960.67
596.83	984.00
596.95	980.67
597.08	1019.00
597.20	961.33
597.32	975.67
597.45	1009.67
597.57	999.00
597.70	1039.33
597.82	992.67
597.95	998.33
598.07	1014.00
598.20	1012.33
598.32	1002.67
598.45	985.33
598.57	1054.67
598.70	1086.33
598.82	992.00
598.94	977.67
599.07	1051.33
599.19	1001.33
599.32	986.33
599.44	906.33
599.57	1044.00
599.69	1026.33
599.82	989.00
599.94	963.67
600.07	1062.33
600.19	1032.00
600.31	979.67
600.44	1036.67
600.56	1139.33
600.69	1112.67
600.81	984.00
600.94	991.00
601.06	1020.33
601.19	1035.67
601.31	1034.67
601.44	955.00
601.56	1080.33
601.68	1052.67
601.81	1024.00
601.93	1006.00
602.06	1039.67
602.18	977.67
602.31	993.67
602.43	1059.00
602.56	1049.67
602.68	1008.67
602.80	1002.00
602.93	1022.00
603.05	975.00
603.18	1028.33
603.30	968.00
603.43	965.00
603.55	1006.67
603.68	1030.33
603.80	1020.67
603.92	1008.33
604.05	982.67
604.17	993.67
604.30	976.33
604.42	993.67
604.55	997.67
604.67	1046.33
604.79	985.33
604.92	1002.00
605.04	990.67
605.17	995.33
605.29	978.67
605.42	982.67
605.54	1075.67
605.66	1030.00
605.79	1025.67
605.91	1008.33
606.04	1012.33
606.16	990.00
606.29	1014.67
606.41	967.67
606.53	1006.67
606.66	959.00
606.78	1003.00
606.91	992.00
607.03	1003.67
607.16	990.00
607.28	968.67
607.40	1014.00
607.53	1031.67
607.65	971.33
607.78	974.33
607.90	1003.00
608.03	1121.67
608.15	1024.33
608.27	1027.67
608.40	964.00
608.52	1029.67
608.65	1011.67
608.77	1041.67
608.89	1003.67
609.02	1105.00
609.14	1099.00
609.27	1020.00
609.39	1049.67
609.52	993.00
609.64	943.67
609.76	976.33
609.89	996.67
610.01	1076.00
610.14	1047.33
610.26	1009.67
610.38	982.00
610.51	1063.33
610.63	1012.00
610.76	974.00
610.88	1030.00
611.01	1070.00
611.13	1124.33
611.25	1047.00
611.38	971.67
611.50	1012.33
611.63	1041.67
611.75	1012.33
611.87	1013.00
612.00	1000.33
612.12	1078.67
612.25	998.33
612.37	981.67
612.49	1096.33
612.62	1069.00
612.74	1074.33
612.87	1010.33
612.99	1022.33
613.11	969.33
613.24	1004.33
613.36	1000.00
613.49	1030.00
613.61	1024.67
613.73	994.33
613.86	1050.00
613.98	992.33
614.11	1065.00
614.23	1039.00
614.35	1041.67
614.48	1063.67
614.60	1038.67
614.72	1007.00
614.85	1029.33
614.97	1024.00
615.10	1043.00
615.22	998.33
615.34	1014.67
615.47	1077.33
615.59	993.33
615.72	1007.33
615.84	1029.33
615.96	989.67
616.09	1115.67
616.21	1003.00
616.34	989.33
616.46	1014.33
616.58	1051.33
616.71	1037.00
616.83	1061.33
616.95	1049.67
617.08	1063.33
617.20	1024.00
617.33	980.33
617.45	1016.00
617.57	1050.33
617.70	1035.00
617.82	991.33
617.95	1031.00
618.07	1094.00
618.19	1036.67
618.32	1032.00
618.44	999.67
618.56	984.00
618.69	956.00
618.81	958.67
618.94	1069.33
619.06	1026.33
619.18	1015.00
619.31	971.33
619.43	982.00
619.55	1028.33
619.68	1046.33
619.80	970.67
619.92	1044.67
620.05	1170.67
620.17	1082.00
620.30	1018.33
620.42	1041.33
620.54	1073.33
620.67	999.33
620.79	1017.67
620.91	1026.67
621.04	1095.67
621.16	1014.33
621.29	1000.00
621.41	972.33
621.53	1018.00
621.66	1013.67
621.78	993.00
621.90	1075.67
622.03	1135.33
622.15	1020.33
622.27	1006.67
622.40	1023.67
622.52	999.33
622.64	996.67
622.77	970.33
622.89	1041.00
623.02	1070.67
623.14	1034.00
623.26	1052.33
623.39	1070.33
623.51	1091.67
623.63	1021.00
623.76	979.33
623.88	1095.00
624.00	1032.33
624.13	990.00
624.25	995.67
624.37	989.00
624.50	1077.33
624.62	1045.33
624.75	986.33
624.87	983.67
624.99	1055.00
625.12	993.00
625.24	998.67
625.36	1115.00
625.49	1047.00
625.61	1038.00
625.73	1026.33
625.86	1073.33
625.98	1025.33
626.10	983.33
626.23	961.33
626.35	1055.67
626.47	1010.33
626.60	985.00
626.72	995.00
626.84	1006.67
626.97	1048.33
627.09	1021.00
627.21	1024.67
627.34	1145.00
627.46	1125.00
627.58	1015.67
627.71	1039.33
627.83	1052.67
627.95	982.00
628.08	1016.33
628.20	1064.00
628.32	971.00
628.45	953.00
628.57	950.33
628.69	981.00
628.82	1046.67
628.94	1083.33
629.06	1024.33
629.19	1005.33
629.31	1064.33
629.43	992.67
629.56	1032.00
629.68	1014.67
629.80	1081.00
629.93	988.67
630.05	982.67
630.17	986.00
630.30	1025.00
630.42	1014.00
630.54	1048.33
630.67	1025.67
630.79	999.00
630.91	1161.67
631.04	1040.00
631.16	1041.67
631.28	1041.33
631.41	1008.33
631.53	983.00
631.65	1018.00
631.78	1052.67
631.90	1042.67
632.02	1017.67
632.14	939.67
632.27	1098.67
632.39	1032.67
632.51	998.33
632.64	1058.67
632.76	1037.33
632.88	1021.67
633.01	1041.67
633.13	1020.00
633.25	1035.67
633.38	1138.00
633.50	971.00
633.62	964.67
633.75	969.67
633.87	974.33
633.99	1041.67
634.11	974.67
634.24	1013.00
634.36	1031.00
634.48	1017.67
634.61	993.33
634.73	1052.67
634.85	1000.00
634.98	1002.67
635.10	991.00
635.22	1025.33
635.35	1157.33
635.47	1041.67
635.59	1016.67
635.71	1055.67
635.84	1092.67
635.96	1009.00
636.08	1054.33
636.21	1006.33
636.33	1048.00
636.45	1025.00
636.58	996.67
636.70	968.33
636.82	1063.33
636.94	1003.67
637.07	974.33
637.19	1059.33
637.31	1051.67
637.44	1036.67
637.56	972.67
637.68	1051.33
637.81	1060.00
637.93	1027.00
638.05	986.00
638.17	1081.33
638.30	1170.33
638.42	1023.33
638.54	988.33
638.67	1021.00
638.79	1029.67
638.91	991.33
639.03	999.67
639.16	1017.00
639.28	1027.00
639.40	1041.33
639.53	1000.00
639.65	1066.00
639.77	1032.00
639.89	1037.00
640.02	1018.67
640.14	1044.00
640.26	1008.67
640.39	1054.33
640.51	1004.00
640.63	1064.00
640.75	1090.00
640.88	1031.33
641.00	1014.67
641.12	1005.00
641.24	1118.00
641.37	1010.67
641.49	993.00
641.61	1141.33
641.74	1019.33
641.86	1047.67
641.98	986.33
642.10	1054.00
642.23	1061.00
642.35	1014.67
642.47	1039.33
642.60	1041.33
642.72	1074.33
642.84	971.33
642.96	991.00
643.09	980.67
643.21	999.67
643.33	991.33
643.45	990.00
643.58	1084.67
643.70	1104.67
643.82	1008.00
643.94	1015.67
644.07	1043.00
644.19	1049.33
644.31	1036.67
644.44	1021.67
644.56	1025.33
644.68	1003.00
644.80	995.33
644.93	983.33
645.05	1001.00
645.17	1036.00
645.29	1028.33
645.42	1034.00
645.54	1028.67
645.66	1057.67
645.78	1020.33
645.91	1008.67
646.03	1060.33
646.15	1117.67
646.27	1008.00
646.40	1034.67
646.52	1074.33
646.64	1079.67
646.76	1022.67
646.89	976.67
647.01	1067.67
647.13	1061.33
647.25	1066.67
647.38	1022.00
647.50	1004.33
647.62	1076.67
647.74	973.33
647.87	983.67
647.99	1055.00
648.11	1079.33
648.23	1025.67
648.36	959.67
648.48	1100.33
648.60	1050.33
648.72	990.67
648.85	982.00
648.97	1087.67
649.09	1059.00
649.21	999.67
649.34	1049.33
649.46	1073.00
649.58	1048.00
649.70	1053.33
649.83	1012.00
649.95	1099.67
650.07	1075.33
650.19	1075.33
650.32	1037.33
650.44	1097.33
650.56	1058.67
650.68	1016.00
650.81	1006.67
650.93	1019.00
651.05	1094.33
651.17	996.00
651.29	1051.67
651.42	1026.67
651.54	1077.67
651.66	999.67
651.78	1002.67
651.91	1065.33
652.03	1166.33
652.15	1054.33
652.27	1006.33
652.40	1059.00
652.52	1034.67
652.64	1038.33
652.76	1007.00
652.88	1151.00
653.01	1049.00
653.13	994.00
653.25	950.33
653.37	1074.33
653.50	1090.33
653.62	1061.33
653.74	995.00
653.86	1092.33
653.98	1080.33
654.11	1004.00
654.23	1014.00
654.35	1018.33
654.47	1169.00
654.60	1029.33
654.72	1031.33
654.84	996.67
654.96	1086.67
655.08	1020.33
655.21	1044.00
655.33	1031.00
655.45	1101.67
655.57	1052.33
655.70	1036.33
655.82	1086.33
655.94	1137.67
656.06	1069.33
656.18	999.00
656.31	1110.67
656.43	1075.67
656.55	1003.67
656.67	1027.33
656.79	1053.67
656.92	1106.00
657.04	1054.67
657.16	1014.33
657.28	1165.67
657.40	1065.00
657.53	1077.33
657.65	1031.00
657.77	1101.00
657.89	1092.00
658.01	1034.33
658.14	998.67
658.26	1078.33
658.38	1032.67
658.50	994.33
658.62	992.33
658.75	1179.33
658.87	1102.33
658.99	1065.67
659.11	1007.33
659.23	1094.33
659.36	1160.00
659.48	1092.67
659.60	1050.00
659.72	1061.33
659.84	1061.33
659.97	1059.00
660.09	1071.67
660.21	1165.00
660.33	1104.00
660.45	990.33
660.58	955.33
660.70	1013.00
660.82	1042.67
660.94	999.00
661.06	1035.67
661.19	1113.00
661.31	1088.67
661.43	1040.33
661.55	1034.00
661.67	1095.33
661.80	1116.00
661.92	1045.33
662.04	1049.00
662.16	1051.00
662.28	1102.67
662.40	1050.67
662.53	1046.00
662.65	1071.33
662.77	1019.67
662.89	1050.00
663.01	1024.67
663.14	1054.67
663.26	1082.00
663.38	1047.00
663.50	1008.00
663.62	1024.00
663.74	1048.67
663.87	1026.33
663.99	1052.67
664.11	1074.67
664.23	1177.67
664.35	1037.67
664.48	1033.00
664.60	1056.00
664.72	1048.33
664.84	1016.33
664.96	1026.67
665.08	1111.67
665.21	1075.00
665.33	1080.00
665.45	999.00
665.57	1051.67
665.69	1138.00
665.81	1049.67
665.94	1014.00
666.06	1019.67
666.18	1082.33
666.30	1027.00
666.42	1018.67
666.54	1077.33
666.67	1084.00
666.79	1017.33
666.91	1074.33
667.03	1050.33
667.15	1013.67
667.27	1043.67
667.40	1016.67
667.52	1038.67
667.64	1112.33
667.76	1023.33
667.88	997.67
668.00	1100.67
668.13	1095.00
668.25	1016.67
668.37	1021.67
668.49	1042.00
668.61	1109.33
668.73	1045.33
668.85	1068.00
668.98	1088.00
669.10	1071.00
669.22	1043.33
669.34	1031.00
669.46	1098.33
669.58	1036.33
669.71	1053.33
669.83	1041.67
669.95	1049.67
670.07	1075.67
670.19	1039.00
670.31	1048.67
670.43	1044.33
670.56	1073.00
670.68	1094.00
670.80	1059.33
670.92	1069.33
671.04	1124.67
671.16	1030.00
671.28	1027.00
671.41	1047.00
671.53	1093.33
671.65	1041.67
671.77	1034.67
671.89	1227.67
672.01	1154.33
672.13	1094.00
672.26	1026.00
672.38	1071.33
672.50	1033.33
672.62	1036.33
672.74	1060.00
672.86	1057.00
672.98	1079.33
673.11	1050.67
673.23	1064.33
673.35	1128.00
673.47	1069.67
673.59	1060.00
673.71	1007.67
673.83	1097.00
673.96	1194.00
674.08	1058.33
674.20	1024.67
674.32	1053.33
674.44	1067.67
674.56	1071.00
674.68	1069.67
674.80	1106.00
674.93	1076.33
675.05	1044.00
675.17	1060.67
675.29	1121.33
675.41	1118.33
675.53	1059.67
675.65	1059.67
675.77	1059.67
675.90	1114.00
676.02	1034.33
676.14	1031.00
676.26	1137.33
676.38	1175.67
676.50	1063.67
676.62	1086.00
676.74	1029.33
676.87	1036.00
676.99	1061.33
677.11	1105.33
677.23	1081.00
677.35	1100.67
677.47	1018.33
677.59	1039.00
677.71	1093.67
677.83	1109.33
677.96	1061.67
678.08	1058.67
678.20	1060.67
678.32	1025.33
678.44	1054.33
678.56	1056.33
678.68	1216.67
678.80	1113.00
678.93	1041.67
679.05	1048.00
679.17	1073.00
679.29	1135.00
679.41	1065.00
679.53	1032.00
679.65	1041.67
679.77	1088.67
679.89	1041.67
680.01	1092.67
680.14	1097.00
680.26	1011.33
680.38	1046.00
680.50	1090.00
680.62	1158.33
680.74	1094.33
680.86	1058.67
680.98	1073.33
681.10	1088.67
681.22	1187.67
681.35	1045.00
681.47	1052.67
681.59	1035.33
681.71	1166.67
681.83	1057.00
681.95	1030.67
682.07	1141.33
682.19	1103.00
682.31	1051.67
682.43	1020.33
682.56	1114.33
682.68	1021.67
682.80	1029.33
682.92	1082.67
683.04	1075.67
683.16	1061.67
683.28	1034.00
683.40	1091.33
683.52	1072.67
683.64	1100.33
683.76	1025.33
683.89	1050.33
684.01	1064.33
684.13	1133.33
684.25	1063.67
684.37	1079.67
684.49	1114.00
684.61	1064.67
684.73	1062.00
684.85	1059.00
684.97	1043.33
685.09	1140.00
685.21	1033.00
685.34	1079.00
685.46	1205.00
685.58	1106.33
685.70	1081.67
685.82	1108.00
685.94	1047.00
686.06	1043.33
686.18	1038.67
686.30	1066.00
686.42	1029.67
686.54	1107.67
686.66	1035.33
686.79	1139.00
686.91	1096.00
687.03	1196.00
687.15	1105.67
687.27	1078.33
687.39	1074.67
687.51	1165.00
687.63	1095.00
687.75	1120.67
687.87	1118.67
687.99	1159.00
688.11	1031.67
688.23	1096.67
688.35	1123.67
688.48	1104.33
688.60	1041.33
688.72	1055.33
688.84	1095.67
688.96	1115.67
689.08	1071.00
689.20	1071.00
689.32	1209.33
689.44	1107.67
689.56	1028.67
689.68	1044.67
689.80	1070.00
689.92	1051.33
690.04	1044.00
690.16	1116.00
690.28	1098.00
690.41	1109.33
690.53	1052.67
690.65	1119.67
690.77	1146.67
690.89	1133.67
691.01	1078.33
691.13	1052.33
691.25	1037.67
691.37	1068.33
691.49	1017.33
691.61	1031.00
691.73	1165.00
691.85	1090.00
691.97	1062.33
692.09	1048.00
692.21	1136.33
692.33	1154.00
692.45	1076.67
692.57	1052.67
692.70	1092.33
692.82	1116.33
692.94	1018.00
693.06	1049.00
693.18	1089.67
693.30	1073.33
693.42	1044.33
693.54	1073.00
693.66	1102.33
693.78	1121.00
693.90	1071.00
694.02	1079.00
694.14	1108.67
694.26	1071.00
694.38	1097.00
694.50	1087.00
694.62	1105.67
694.74	1040.67
694.86	1042.67
694.98	1088.67
695.10	1100.67
695.22	1148.33
695.34	1060.67
695.46	1051.67
695.58	1065.67
695.71	1097.67
695.83	1055.67
695.95	1057.00
696.07	1161.33
696.19	1050.00
696.31	1055.33
696.43	1044.67
696.55	1185.67
696.67	1113.00
696.79	1058.67
696.91	1079.67
697.03	1072.33
697.15	1182.00
697.27	1084.67
697.39	1067.00
697.51	1131.67
697.63	1069.67
697.75	1054.67
697.87	1084.00
697.99	1037.33
698.11	1014.00
698.23	1051.67
698.35	1053.00
698.47	1058.67
698.59	1089.67
698.71	1059.67
698.83	1126.67
698.95	1055.33
699.07	1092.67
699.19	1063.00
699.31	1069.33
699.43	1060.33
699.55	1122.00
699.67	1071.00
699.79	1066.67
699.91	1065.67
700.03	1084.33
700.15	1081.00
700.27	1045.00
700.39	1087.67
700.51	1052.67
700.63	1077.00
700.75	1071.00
700.87	1110.67
700.99	1068.67
701.11	1103.33
701.24	1064.00
701.36	1135.67
701.48	1132.00
701.60	1111.00
701.72	1054.67
701.84	1157.67
701.96	1113.33
702.08	1080.67
702.20	1173.00
702.32	1109.67
702.44	1119.00
702.56	1066.67
702.68	1074.67
702.80	1098.00
702.92	1195.67
703.04	1149.00
703.16	1093.67
703.28	1112.33
703.40	1075.67
703.52	1108.33
703.64	1104.33
703.76	1109.33
703.88	1082.33
704.00	1048.33
704.12	1076.67
704.24	1153.67
704.36	1111.00
704.48	1101.67
704.60	1052.67
704.72	1085.67
704.84	1073.67
704.96	1112.33
705.07	1085.67
705.19	1057.33
705.31	1084.33
705.43	1127.00
705.55	1066.00
705.67	1117.67
705.79	1095.33
705.91	1019.00
706.03	1089.33
706.15	1102.33
706.27	1101.00
706.39	1082.00
706.51	1069.00
706.63	1067.00
706.75	1124.33
706.87	1099.00
706.99	1159.67
707.11	1100.33
707.23	1083.33
707.35	1108.33
707.47	1087.33
707.59	1126.33
707.71	1149.67
707.83	1084.33
707.95	1132.67
708.07	1092.00
708.19	1234.00
708.31	1119.67
708.43	1065.67
708.55	1121.33
708.67	1173.67
708.79	1101.33
708.91	1139.67
709.03	1124.33
709.15	1153.00
709.27	1063.00
709.39	1095.00
709.51	1091.00
709.63	1125.67
709.75	1116.67
709.87	1050.33
709.99	1147.67
710.11	1079.33
710.23	1077.00
710.35	1054.00
710.47	1211.00
710.58	1162.67
710.70	1138.33
710.82	1158.33
710.94	1121.67
711.06	1108.00
711.18	1101.67
711.30	1070.00
711.42	1134.33
711.54	1111.00
711.66	1128.00
711.78	1072.67
711.90	1144.33
712.02	1189.33
712.14	1069.67
712.26	1054.33
712.38	1172.00
712.50	1189.00
712.62	1095.67
712.74	1092.33
712.86	1092.67
712.98	1158.67
713.10	1083.00
713.22	1049.00
713.34	1110.33
713.45	1081.33
713.57	1104.67
713.69	1065.67
713.81	1083.33
713.93	1118.33
714.05	1104.00
714.17	1079.33
714.29	1180.33
714.41	1165.67
714.53	1086.00
714.65	1116.67
714.77	1109.00
714.89	1071.00
715.01	1150.33
715.13	1081.67
715.25	1114.67
715.37	1064.67
715.49	1044.33
715.61	1118.67
715.72	1143.33
715.84	1172.00
715.96	1093.67
716.08	1095.00
716.20	1180.00
716.32	1166.33
716.44	1087.33
716.56	1102.00
716.68	1124.00
716.80	1214.00
716.92	1172.00
717.04	1131.33
717.16	1133.33
717.28	1114.67
717.40	1095.00
717.52	1106.67
717.63	1099.33
717.75	1123.00
717.87	1106.33
717.99	1111.67
718.11	1105.00
718.23	1189.33
718.35	1131.00
718.47	1097.67
718.59	1057.00
718.71	1109.33
718.83	1086.67
718.95	1119.33
719.07	1077.67
719.19	1102.00
719.30	1093.33
719.42	1112.33
719.54	1097.33
719.66	1135.00
719.78	1110.00
719.90	1045.33
720.02	1123.67
720.14	1142.67
720.26	1149.33
720.38	1135.67
720.50	1077.00
720.62	1037.00
720.74	1101.33
720.85	1108.67
720.97	1189.33
721.09	1223.33
721.21	1111.67
721.33	1178.33
721.45	1144.33
721.57	1143.00
721.69	1079.00
721.81	1055.33
721.93	1189.33
722.05	1131.67
722.16	1070.33
722.28	1043.00
722.40	1089.00
722.52	1184.67
722.64	1179.67
722.76	1067.00
722.88	1154.00
723.00	1150.67
723.12	1094.67
723.24	1126.33
723.36	1060.67
723.47	1167.33
723.59	1125.00
723.71	1095.00
723.83	1139.00
723.95	1105.67
724.07	1111.00
724.19	1133.67
724.31	1200.67
724.43	1086.00
724.55	1052.33
724.66	1080.00
724.78	1273.00
724.90	1074.33
725.02	1072.67
725.14	1086.00
725.26	1123.00
725.38	1049.00
725.50	1098.33
725.62	1123.67
725.74	1111.00
725.85	1120.67
725.97	1118.67
726.09	1182.67
726.21	1436.00
726.33	1163.00
726.45	1111.67
726.57	1090.67
726.69	1127.33
726.81	1135.33
726.92	1113.67
727.04	1113.00
727.16	1141.00
727.28	1114.00
727.40	1108.00
727.52	1117.00
727.64	1258.67
727.76	1232.00
727.88	1140.67
727.99	1074.67
728.11	1087.33
728.23	1111.33
728.35	1092.33
728.47	1090.67
728.59	1107.33
728.71	1136.33
728.83	1122.00
728.94	1150.67
729.06	1217.33
729.18	1191.67
729.30	1144.67
729.42	1124.33
729.54	1216.33
729.66	1238.00
729.78	1122.00
729.90	1137.67
730.01	1106.33
730.13	1039.67
730.25	1120.33
730.37	1104.00
730.49	1148.67
730.61	1154.67
730.73	1126.33
730.84	1153.33
730.96	1168.00
731.08	1140.33
731.20	1121.33
731.32	1134.33
731.44	1298.33
731.56	1148.67
731.68	1090.33
731.79	1137.33
731.91	1107.33
732.03	1104.67
732.15	1115.67
732.27	1105.33
732.39	1105.33
732.51	1168.67
732.62	1084.67
732.74	1107.00
732.86	1184.33
732.98	1149.67
733.10	1127.67
733.22	1125.00
733.34	1157.00
733.45	1079.67
733.57	1107.00
733.69	1080.33
733.81	1114.00
733.93	1141.33
734.05	1055.33
734.17	1113.33
734.28	1120.00
734.40	1139.67
734.52	1113.67
734.64	1106.67
734.76	1214.00
734.88	1134.00
735.00	1090.67
735.11	1129.67
735.23	1184.33
735.35	1113.00
735.47	1054.33
735.59	1151.33
735.71	1126.67
735.83	1135.67
735.94	1140.00
736.06	1129.67
736.18	1189.33
736.30	1186.00
736.42	1151.33
736.54	1145.67
736.65	1165.67
736.77	1295.67
736.89	1185.67
737.01	1132.33
737.13	1249.67
737.25	1059.00
737.36	1099.33
737.48	1120.33
737.60	1129.67
737.72	1113.00
737.84	1122.33
737.96	1159.00
738.08	1122.33
738.19	1229.67
738.31	1113.67
738.43	1126.67
738.55	1125.67
738.67	1142.00
738.79	1097.00
738.90	1136.33
739.02	1154.67
739.14	1120.00
739.26	1125.67
739.38	1126.00
739.50	1154.00
739.61	1149.00
739.73	1123.00
739.85	1102.00
739.97	1157.00
740.09	1198.67
740.20	1084.67
740.32	1145.00
740.44	1163.67
740.56	1100.33
740.68	1114.67
740.80	1135.67
740.91	1130.67
741.03	1180.33
741.15	1158.00
741.27	1114.00
741.39	1178.33
741.51	1159.33
741.62	1160.67
741.74	1125.00
741.86	1133.00
741.98	1122.00
742.10	1140.33
742.21	1138.33
742.33	1145.67
742.45	1111.00
742.57	1195.00
742.69	1119.00
742.80	1177.67
742.92	1128.67
743.04	1122.00
743.16	1109.33
743.28	1195.67
743.40	1095.33
743.51	1102.33
743.63	1096.33
743.75	1148.67
743.87	1145.67
743.99	1147.00
744.10	1122.00
744.22	1141.67
744.34	1114.67
744.46	1152.67
744.58	1133.00
744.69	1067.33
744.81	1141.67
744.93	1096.33
745.05	1087.33
745.17	1215.67
745.28	1228.33
745.40	1142.67
745.52	1122.00
745.64	1152.00
745.76	1182.00
745.87	1126.67
745.99	1110.33
746.11	1152.33
746.23	1093.67
746.35	1126.33
746.46	1110.33
746.58	1255.00
746.70	1159.00
746.82	1139.67
746.94	1129.00
747.05	1096.33
747.17	1077.00
747.29	1074.33
747.41	1100.33
747.53	1280.33
747.64	1125.00
747.76	1178.00
747.88	1178.33
748.00	1195.33
748.12	1159.00
748.23	1130.33
748.35	1148.00
748.47	1191.67
748.59	1176.00
748.70	1114.00
748.82	1078.67
748.94	1092.67
749.06	1116.67
749.18	1109.00
749.29	1087.67
749.41	1157.67
749.53	1133.00
749.65	1122.33
749.76	1146.33
749.88	1123.33
750.00	1149.00
750.12	1169.00
750.24	1147.00
750.35	1143.67
750.47	1098.33
750.59	1151.67
750.71	1109.67
750.82	1181.33
750.94	1111.00
751.06	1116.67
751.18	1108.00
751.30	1176.00
751.41	1193.00
751.53	1157.67
751.65	1098.00
751.77	1108.00
751.88	1141.33
752.00	1159.67
752.12	1087.33
752.24	1200.00
752.35	1166.00
752.47	1157.00
752.59	1152.00
752.71	1228.00
752.83	1108.33
752.94	1184.67
753.06	1102.00
753.18	1141.33
753.30	1105.67
753.41	1068.00
753.53	1100.67
753.65	1110.33
753.77	1174.67
753.88	1100.33
754.00	1126.67
754.12	1147.33
754.24	1195.00
754.35	1111.33
754.47	1063.00
754.59	1158.67
754.71	1157.67
754.82	1133.33
754.94	1122.00
755.06	1190.00
755.18	1158.00
755.29	1142.00
755.41	1106.00
755.53	1179.33
755.65	1102.00
755.76	1147.33
755.88	1129.33
756.00	1195.33
756.12	1120.00
756.23	1028.00
756.35	1088.00
756.47	1188.00
756.59	1113.67
756.70	1096.00
756.82	1108.33
756.94	1123.67
757.06	1154.33
757.17	1149.00
757.29	1127.67
757.41	1073.33
757.53	1144.00
757.64	1127.67
757.76	1127.33
757.88	1151.00
758.00	1151.33
758.11	1105.00
758.23	1084.67
758.35	1149.33
758.47	1104.33
758.58	1150.67
758.70	1081.00
758.82	1102.00
758.94	1098.67
759.05	1126.67
759.17	1083.33
759.29	1114.67
759.40	1200.67
759.52	1110.67
759.64	1106.33
759.76	1144.00
759.87	1152.00
759.99	1141.33
760.11	1103.33
760.23	1141.67
760.34	1174.67
760.46	1134.67
760.58	1110.33
760.70	1127.00
760.81	1182.33
760.93	1134.33
761.05	1146.00
761.16	1145.00
761.28	1113.33
761.40	1100.33
761.52	1084.00
761.63	1190.00
761.75	1129.67
761.87	1109.33
761.98	1070.00
762.10	1148.67
762.22	1117.67
762.34	1146.33
762.45	1111.67
762.57	1159.33
762.69	1252.00
762.81	1104.67
762.92	1131.67
763.04	1068.67
763.16	1161.00
763.27	1166.67
763.39	1098.33
763.51	1157.00
763.63	1155.67
763.74	1090.00
763.86	1056.00
763.98	1096.00
764.09	1116.67
764.21	1126.33
764.33	1074.67
764.44	1093.67
764.56	1133.67
764.68	1084.00
764.80	1115.33
764.91	1061.67
765.03	1197.00
765.15	1115.33
765.26	1098.00
765.38	1075.67
765.50	1164.33
765.62	1118.33
765.73	1101.00
765.85	1138.00
765.97	1073.67
766.08	1111.00
766.20	1139.67
766.32	1130.00
766.43	1152.33
766.55	1154.00
766.67	1099.67
766.79	1125.00
766.90	1084.00
767.02	1051.00
767.14	1067.67
767.25	1077.33
767.37	1221.33
767.49	1140.00
767.60	1106.33
767.72	1169.33
767.84	1149.67
767.95	1092.00
768.07	1060.67
768.19	1146.67
768.31	1147.33
768.42	1125.67
768.54	1089.33
768.66	1115.33
768.77	1144.00
768.89	1111.00
769.01	1076.67
769.12	1134.67
769.24	1140.67
769.36	1071.67
769.47	1073.00
769.59	1072.00
769.71	1129.33
769.82	1096.00
769.94	1092.00
770.06	1056.33
770.17	1152.33
770.29	1112.00
770.41	1134.33
770.53	1143.33
770.64	1076.67
770.76	1105.33
770.88	1114.33
770.99	1147.33
771.11	1079.33
771.23	1111.00
771.34	1115.33
771.46	1215.00
771.58	1179.67
771.69	1138.00
771.81	1101.33
771.93	1147.67
772.04	1076.67
772.16	1119.00
772.28	1095.33
772.39	1166.33
772.51	1102.00
772.63	1135.33
772.74	1088.67
772.86	1105.33
772.98	1229.00
773.09	1075.00
773.21	1083.00
773.33	1139.00
773.44	1128.00
773.56	1093.33
773.68	1094.00
773.79	1158.67
773.91	1093.33
774.03	1105.33
774.14	1094.00
774.26	1168.00
774.38	1079.67
774.49	1066.67
774.61	1097.33
774.73	1113.67
774.84	1081.67
774.96	1063.33
775.08	1093.00
775.19	1126.67
775.31	1168.33
775.43	1101.33
775.54	1077.00
775.66	1040.00
775.77	1160.67
775.89	1052.00
776.01	1128.00
776.12	1157.67
776.24	1110.00
776.36	1042.33
776.47	1060.67
776.59	1105.00
776.71	1144.33
776.82	1028.33
776.94	1054.67
777.06	1077.00
777.17	1170.00
777.29	1051.00
777.41	1052.67
777.52	1114.00
777.64	1103.67
777.75	1111.33
777.87	1035.67
777.99	1082.67
778.10	1147.00
778.22	1071.67
778.34	1089.67
778.45	1081.33
778.57	1141.67
778.69	1127.33
778.80	1100.67
778.92	1205.00
779.04	1117.00
779.15	1086.00
779.27	1119.33
779.38	1132.33
779.50	1154.00
779.62	1031.00
779.73	1077.00
779.85	1025.33
779.97	1208.67
780.08	1090.33
780.20	1082.67
780.31	1122.67
780.43	1129.00
780.55	1076.33
780.66	1090.67
780.78	1120.33
780.90	1213.00
781.01	1052.67
781.13	1080.00
781.25	1089.67
781.36	1155.67
781.48	1066.33
781.59	1076.33
781.71	1124.33
781.83	1115.33
781.94	1051.67
782.06	1059.00
782.18	1129.67
782.29	1083.00
782.41	1047.33
782.52	1125.00
782.64	1134.00
782.76	1104.67
782.87	1099.67
782.99	1066.67
783.10	1221.00
783.22	1237.33
783.34	1094.00
783.45	1096.00
783.57	1087.67
783.69	1059.00
783.80	1096.33
783.92	1114.33
784.03	1082.00
784.15	1063.67
784.27	1082.67
784.38	1069.33
784.50	1099.67
784.61	1095.33
784.73	1056.33
784.85	1063.00
784.96	1061.67
785.08	1146.00
785.19	1125.00
785.31	1062.67
785.43	1060.67
785.54	1052.00
785.66	1104.00
785.77	1090.33
785.89	1110.00
786.01	1035.00
786.12	1075.00
786.24	1073.67
786.35	1159.67
786.47	1087.33
786.59	1063.00
786.70	1032.67
786.82	1089.67
786.93	1088.67
787.05	1070.33
787.17	1099.00
787.28	1075.67
787.40	1099.33
787.51	1095.67
787.63	1091.33
787.75	1047.00
787.86	1097.67
787.98	1111.33
788.09	1066.67
788.21	1113.00
788.33	1117.33
788.44	1097.00
788.56	1052.33
788.67	1107.33
788.79	1062.00
788.91	1081.67
789.02	1047.67
789.14	1068.67
789.25	1172.67
789.37	1103.33
789.48	1049.00
789.60	1073.67
789.72	1050.67
789.83	1098.00
789.95	1074.00
790.06	1013.00
790.18	1033.33
790.30	1114.67
790.41	1072.67
790.53	1048.00
790.64	1021.00
790.76	1030.00
790.87	1051.67
790.99	1076.33
791.11	1075.00
791.22	1048.00
791.34	1065.00
791.45	1110.67
791.57	1105.33
791.68	1058.00
791.80	1029.00
791.92	1106.67
792.03	1045.33
792.15	1014.00
792.26	1037.33
792.38	1008.00
792.49	1085.00
792.61	1048.67
792.73	1065.33
792.84	1054.00
792.96	1180.00
793.07	1049.00
793.19	1909.33
793.30	1160.67
793.42	1112.67
793.54	992.00
793.65	1024.67
793.77	1207.33
793.88	1064.33
794.00	1013.33
794.11	1047.67
794.23	997.33
794.34	1062.00
794.46	1003.33
794.58	1008.33
794.69	1160.00
794.81	1150.67
794.92	1033.00
795.04	1016.67
795.15	1137.67
795.27	1095.00
795.39	1058.67
795.50	1029.67
795.62	1038.33
795.73	1056.67
795.85	1025.00
795.96	1064.00
796.08	1118.00
796.19	1041.67
796.31	1043.67
796.42	999.67
796.54	1031.67
796.66	1112.00
796.77	1001.67
796.89	999.00
797.00	1098.67
797.12	974.67
797.23	1030.00
797.35	1072.33
797.46	1095.00
797.58	1125.33
797.69	1057.33
797.81	1030.00
797.93	1045.00
798.04	1031.00
798.16	1027.00
798.27	1056.67
798.39	1014.33
798.50	1011.00
798.62	995.67
798.73	1000.33
798.85	1130.00
798.96	1058.67
799.08	1070.00
799.19	1072.33
799.31	1052.67
799.43	1061.33
799.54	1017.00
799.66	1048.33
799.77	1075.33
799.89	1022.67
800.00	979.00
800.12	1022.00
800.23	1092.33
800.35	1139.67
800.46	980.33
800.58	968.00
800.69	1043.00
800.81	1023.67
800.92	993.00
801.04	1040.33
801.16	972.00
801.27	991.33
801.39	998.00
801.50	1011.67
801.62	1035.67
801.73	1087.00
801.85	1061.00
801.96	993.33
802.08	1091.00
802.19	1094.00
802.31	1017.33
802.42	1030.00
802.54	1128.00
802.65	1104.00
802.77	1000.33
802.88	1060.33
803.00	978.33
803.11	1149.67
803.23	1040.33
803.34	1025.67
803.46	1055.67
803.57	997.67
803.69	1062.00
803.80	986.00
803.92	1079.00
804.03	1032.33
804.15	1043.33
804.26	1067.67
804.38	1075.33
804.50	998.00
804.61	1034.00
804.73	1029.67
804.84	1037.00
804.96	971.00
805.07	1023.67
805.19	989.67
805.30	1053.33
805.42	1075.67
805.53	1028.33
805.65	995.33
805.76	968.00
805.88	1014.00
805.99	1023.33
806.11	1042.00
806.22	1003.00
806.34	1009.00
806.45	1014.67
806.57	1000.67
806.68	1056.67
806.80	940.67
806.91	979.67
807.03	967.33
807.14	950.33
807.26	958.67
807.37	956.00
807.49	1009.33
807.60	994.00
807.72	1094.00
807.83	1086.67
807.95	1013.33
808.06	1034.33
808.17	1027.33
808.29	1034.33
808.40	960.67
808.52	1012.00
808.63	1015.00
808.75	1000.33
808.86	995.33
808.98	1028.67
809.09	964.67
809.21	1005.33
809.32	966.33
809.44	1026.67
809.55	965.33
809.67	1003.00
809.78	958.00
809.90	1026.33
810.01	1055.33
810.13	962.33
810.24	1001.67
810.36	918.67
810.47	952.00
810.59	980.00
810.70	995.33
810.82	1029.00
810.93	930.33
811.05	941.00
811.16	954.00
811.27	942.67
811.39	991.67
811.50	1011.33
811.62	909.67
811.73	902.33
811.85	995.00
811.96	965.00
812.08	993.67
812.19	976.67
812.31	996.00
812.42	962.00
812.54	930.00
812.65	1010.33
812.77	1015.33
812.88	990.00
813.00	1000.33
813.11	997.00
813.22	943.33
813.34	933.33
813.45	959.67
813.57	1063.33
813.68	1054.67
813.80	968.00
813.91	923.00
814.03	953.00
814.14	1051.00
814.26	929.67
814.37	957.00
814.49	965.67
814.60	937.33
814.71	924.33
814.83	939.00
814.94	903.00
815.06	938.00
815.17	947.33
815.29	930.00
815.40	899.67
815.52	1035.67
815.63	934.00
815.75	915.00
815.86	962.33
815.97	897.67
816.09	930.67
816.20	951.67
816.32	973.00
816.43	881.67
816.55	949.00
816.66	915.00
816.78	1039.00
816.89	936.67
817.00	924.00
817.12	895.33
817.23	901.00
817.35	975.33
817.46	930.33
817.58	882.67
817.69	1035.67
817.81	930.67
817.92	955.67
818.03	922.33
818.15	921.67
818.26	884.33
818.38	880.33
818.49	903.33
818.61	937.00
818.72	874.33
818.83	2099.33
818.95	1070.33
819.06	901.33
819.18	898.00
819.29	922.33
819.41	900.67
819.52	922.00
819.64	920.33
819.75	872.00
819.86	854.67
819.98	894.33
820.09	925.00
820.21	907.00
820.32	862.00
820.44	933.33
820.55	979.33
820.66	887.67
820.78	927.33
820.89	899.00
821.01	920.00
821.12	896.33
821.23	899.00
821.35	888.67
821.46	966.00
821.58	895.33
821.69	857.67
821.81	872.00
821.92	955.00
822.03	882.67
822.15	891.33
822.26	850.67
822.38	870.00
822.49	899.67
822.61	892.33
822.72	907.67
822.83	953.00
822.95	883.67
823.06	885.00
823.18	951.67
823.29	974.00
823.40	904.67
823.52	864.67
823.63	838.67
823.75	987.00
823.86	879.67
823.97	826.67
824.09	915.00
824.20	850.00
824.32	884.67
824.43	854.00
824.55	916.67
824.66	965.67
824.77	881.33
824.89	884.00
825.00	949.67
825.12	897.00
825.23	897.67
825.34	829.67
825.46	829.33
825.57	914.67
825.69	844.33
825.80	799.67
825.91	831.00
826.03	812.33
826.14	891.67
826.26	823.67
826.37	861.67
826.48	845.00
826.60	867.33
826.71	831.33
826.83	871.67
826.94	881.00
827.05	896.33
827.17	893.00
827.28	852.00
827.39	836.33
827.51	811.33
827.62	841.33
827.74	856.67
827.85	844.67
827.96	836.00
828.08	839.33
828.19	966.00
828.31	855.00
828.42	785.00
828.53	856.33
828.65	908.33
828.76	916.67
828.87	872.00
828.99	816.00
