Wavelength (nm)	Intensity
377.35	816.00
377.48	683.67
377.62	637.33
377.75	626.33
377.88	867.33
378.02	846.00
378.15	833.33
378.28	806.00
378.41	891.33
378.55	858.00
378.68	835.00
378.81	820.00
378.95	845.67
379.08	840.67
379.21	789.67
379.35	854.67
379.48	861.67
379.61	916.00
379.74	835.33
379.88	821.00
380.01	913.00
380.14	967.33
380.28	888.00
380.41	796.67
380.54	865.33
380.68	877.00
380.81	777.33
380.94	878.00
381.07	917.00
381.21	929.33
381.34	837.33
381.47	773.67
381.61	992.00
381.74	850.33
381.87	791.67
382.00	859.67
382.14	936.00
382.27	887.67
382.40	807.33
382.54	911.33
382.67	918.00
382.80	813.00
382.93	814.33
383.07	830.33
383.20	837.67
383.33	879.33
383.47	810.33
383.60	784.33
383.73	998.00
383.86	885.33
384.00	833.33
384.13	821.00
384.26	877.67
384.40	908.00
384.53	838.00
384.66	871.00
384.79	857.00
384.93	829.67
385.06	822.67
385.19	849.67
385.33	969.33
385.46	876.67
385.59	811.33
385.72	859.00
385.86	798.67
385.99	831.33
386.12	821.33
386.25	802.33
386.39	898.67
386.52	919.00
386.65	828.33
386.79	818.67
386.92	817.33
387.05	932.00
387.18	787.00
387.32	797.67
387.45	889.00
387.58	851.33
387.71	816.00
387.85	811.33
387.98	869.67
388.11	883.00
388.25	846.33
388.38	840.67
388.51	881.33
388.64	892.67
388.78	818.67
388.91	788.33
389.04	840.00
389.17	964.00
389.31	842.00
389.44	876.00
389.57	925.67
389.70	877.33
389.84	822.00
389.97	810.67
390.10	834.33
390.24	880.67
390.37	827.67
390.50	815.33
390.63	922.00
390.77	848.33
390.90	844.67
391.03	827.67
391.16	802.67
391.30	829.33
391.43	820.00
391.56	823.33
391.69	815.67
391.83	897.00
391.96	847.00
392.09	826.33
392.22	946.33
392.36	877.00
392.49	813.00
392.62	826.67
392.75	874.33
392.89	922.00
393.02	803.00
393.15	805.33
393.28	793.33
393.42	929.67
393.55	789.00
393.68	826.00
393.81	776.67
393.95	825.00
394.08	807.00
394.21	814.33
394.34	880.00
394.48	878.00
394.61	869.00
394.74	854.33
394.87	901.33
395.01	869.67
395.14	864.33
395.27	811.67
395.40	952.67
395.54	953.67
395.67	846.67
395.80	830.00
395.93	880.67
396.07	823.67
396.20	812.33
396.33	764.33
396.46	831.67
396.59	842.33
396.73	835.33
396.86	810.33
396.99	906.67
397.12	862.00
397.26	855.33
397.39	835.00
397.52	1163.00
397.65	972.00
397.79	843.33
397.92	831.67
398.05	903.33
398.18	837.00
398.32	832.00
398.45	866.33
398.58	872.00
398.71	879.33
398.84	799.00
398.98	836.00
399.11	871.67
399.24	867.33
399.37	832.33
399.51	800.67
399.64	849.67
399.77	858.67
399.90	840.00
400.03	832.00
400.17	799.00
400.30	911.33
400.43	871.67
400.56	842.67
400.70	861.33
400.83	825.67
400.96	811.67
401.09	846.33
401.23	865.00
401.36	926.33
401.49	817.67
401.62	834.33
401.75	845.00
401.89	812.67
402.02	843.00
402.15	829.33
402.28	868.00
402.41	869.00
402.55	814.00
402.68	832.67
402.81	922.33
402.94	885.00
403.08	818.00
403.21	799.33
403.34	882.67
403.47	889.00
403.60	822.00
403.74	858.67
403.87	891.33
404.00	823.00
404.13	816.67
404.26	784.33
404.40	813.67
404.53	863.00
404.66	828.67
404.79	797.67
404.93	883.67
405.06	857.67
405.19	787.67
405.32	845.00
405.45	866.00
405.59	901.33
405.72	847.00
405.85	814.33
405.98	1018.67
406.11	815.67
406.25	805.67
406.38	831.00
406.51	873.00
406.64	839.33
406.77	798.67
406.91	794.33
407.04	866.67
407.17	848.00
407.30	860.33
407.43	842.33
407.57	932.33
407.70	905.67
407.83	802.33
407.96	834.33
408.09	809.67
408.23	942.33
408.36	838.33
408.49	822.33
408.62	963.33
408.75	864.00
408.89	821.33
409.02	860.67
409.15	857.67
409.28	932.00
409.41	866.67
409.55	817.00
409.68	985.33
409.81	867.67
409.94	821.33
410.07	856.00
410.20	862.33
410.34	851.33
410.47	838.33
410.60	847.33
410.73	883.00
410.86	828.67
411.00	848.33
411.13	812.67
411.26	855.00
411.39	851.67
411.52	853.67
411.66	826.67
411.79	837.33
411.92	816.33
412.05	834.67
412.18	827.33
412.31	874.67
412.45	889.67
412.58	876.67
412.71	794.67
412.84	868.00
412.97	938.33
413.11	846.00
413.24	854.67
413.37	895.00
413.50	957.33
413.63	860.33
413.76	828.67
413.90	894.33
414.03	840.33
414.16	828.67
414.29	860.67
414.42	852.67
414.56	962.67
414.69	820.00
414.82	841.33
414.95	853.00
415.08	870.33
415.21	831.67
415.35	858.33
415.48	773.00
415.61	902.00
415.74	897.33
415.87	798.00
416.00	863.33
416.14	992.33
416.27	850.67
416.40	812.00
416.53	841.67
416.66	880.00
416.79	850.33
416.93	802.33
417.06	909.00
417.19	849.67
417.32	826.00
417.45	821.33
417.58	805.67
417.72	909.00
417.85	813.00
417.98	837.67
418.11	881.00
418.24	832.00
418.37	820.67
418.51	839.33
418.64	858.00
418.77	942.00
418.90	859.67
419.03	805.33
419.16	864.67
419.29	903.00
419.43	822.00
419.56	809.33
419.69	979.00
419.82	911.33
419.95	835.00
420.08	886.00
420.22	930.67
420.35	992.67
420.48	894.00
420.61	826.33
420.74	795.00
420.87	902.33
421.00	806.00
421.14	821.67
421.27	894.00
421.40	943.33
421.53	864.00
421.66	839.67
421.79	854.67
421.93	871.67
422.06	839.67
422.19	813.00
422.32	903.00
422.45	903.67
422.58	852.67
422.71	825.00
422.85	903.33
422.98	901.67
423.11	802.67
423.24	790.00
423.37	816.67
423.50	818.00
423.63	848.67
423.77	810.33
423.90	823.00
424.03	886.00
424.16	872.33
424.29	836.67
424.42	797.00
424.55	823.00
424.69	807.00
424.82	840.00
424.95	864.00
425.08	814.67
425.21	864.67
425.34	822.67
425.47	864.33
425.60	867.00
425.74	801.00
425.87	835.33
426.00	856.67
426.13	875.00
426.26	806.67
426.39	812.33
426.52	848.33
426.66	929.67
426.79	869.00
426.92	816.00
427.05	960.00
427.18	921.33
427.31	839.00
427.44	835.00
427.57	819.67
427.71	859.33
427.84	812.00
427.97	837.33
428.10	921.33
428.23	871.33
428.36	824.33
428.49	759.33
428.62	987.33
428.76	976.33
428.89	858.00
429.02	795.33
429.15	844.00
429.28	966.00
429.41	827.67
429.54	826.67
429.67	828.00
429.81	877.00
429.94	847.00
430.07	826.67
430.20	904.33
430.33	919.00
430.46	809.33
430.59	804.33
430.72	848.00
430.85	794.33
430.99	835.67
431.12	814.00
431.25	914.00
431.38	946.00
431.51	846.67
431.64	846.33
431.77	939.33
431.90	930.00
432.03	834.33
432.17	815.67
432.30	869.67
432.43	887.33
432.56	843.33
432.69	868.67
432.82	874.67
432.95	912.00
433.08	852.00
433.21	843.00
433.35	845.00
433.48	851.33
433.61	812.67
433.74	829.00
433.87	820.67
434.00	889.00
434.13	814.33
434.26	865.33
434.39	871.00
434.53	886.67
434.66	838.33
434.79	839.33
434.92	830.67
435.05	930.00
435.18	825.00
435.31	870.00
435.44	921.67
435.57	870.67
435.70	840.00
435.84	812.33
435.97	919.00
436.10	972.67
436.23	820.67
436.36	817.33
436.49	850.00
436.62	875.33
436.75	831.33
436.88	864.00
437.01	823.67
437.14	813.33
437.28	790.67
437.41	822.33
437.54	920.67
437.67	898.33
437.80	829.33
437.93	795.67
438.06	994.33
438.19	909.33
438.32	813.33
438.45	817.67
438.58	873.67
438.72	936.67
438.85	888.67
438.98	833.67
439.11	881.00
439.24	934.00
439.37	918.67
439.50	866.00
439.63	911.33
439.76	840.67
439.89	808.33
440.02	833.00
440.15	882.33
440.29	931.00
440.42	834.67
440.55	837.67
440.68	941.67
440.81	989.33
440.94	860.33
441.07	848.00
441.20	960.33
441.33	873.33
441.46	830.00
441.59	821.67
441.72	852.67
441.85	874.67
441.99	887.67
442.12	879.00
442.25	954.00
442.38	891.67
442.51	869.00
442.64	801.33
442.77	860.67
442.90	853.00
443.03	804.00
443.16	821.00
443.29	866.67
443.42	932.67
443.55	828.33
443.68	851.33
443.82	812.00
443.95	837.00
444.08	826.67
444.21	827.67
444.34	820.00
444.47	850.00
444.60	835.33
444.73	850.33
444.86	861.67
444.99	927.33
445.12	869.33
445.25	854.00
445.38	879.33
445.51	908.00
445.64	859.33
445.78	810.67
445.91	795.33
446.04	982.67
446.17	886.33
446.30	796.33
446.43	879.33
446.56	866.00
446.69	823.00
446.82	824.67
446.95	911.33
447.08	934.33
447.21	860.00
447.34	819.33
447.47	909.67
447.60	897.33
447.73	848.67
447.86	876.67
447.99	858.00
448.13	876.33
448.26	887.00
448.39	828.67
448.52	891.67
448.65	905.00
448.78	838.33
448.91	832.33
449.04	885.00
449.17	837.67
449.30	869.33
449.43	858.33
449.56	857.67
449.69	922.33
449.82	837.33
449.95	796.67
450.08	908.33
450.21	895.67
450.34	849.00
450.47	837.33
450.60	906.00
450.73	868.67
450.87	839.33
451.00	861.67
451.13	894.33
451.26	1032.00
451.39	838.00
451.52	867.67
451.65	850.67
451.78	836.33
451.91	832.00
452.04	829.00
452.17	946.33
452.30	946.33
452.43	837.00
452.56	833.00
452.69	915.33
452.82	832.67
452.95	891.33
453.08	818.00
453.21	778.33
453.34	911.67
453.47	834.00
453.60	904.33
453.73	961.67
453.86	899.00
453.99	869.00
454.12	854.33
454.25	851.00
454.38	865.00
454.52	815.67
454.65	834.00
454.78	835.33
454.91	808.67
455.04	828.33
455.17	810.33
455.30	840.00
455.43	929.00
455.56	831.33
455.69	818.67
455.82	888.00
455.95	883.00
456.08	808.67
456.21	799.00
456.34	798.00
456.47	786.33
456.60	832.67
456.73	818.00
456.86	859.33
456.99	903.33
457.12	825.67
457.25	842.67
457.38	916.67
457.51	893.00
457.64	856.33
457.77	825.67
457.90	846.33
458.03	844.67
458.16	843.00
458.29	845.00
458.42	855.67
458.55	800.33
458.68	825.33
458.81	838.33
458.94	937.67
459.07	980.67
459.20	800.33
459.33	812.33
459.46	918.00
459.59	956.67
459.72	913.00
459.85	841.33
459.98	943.67
460.11	901.33
460.24	848.67
460.37	810.00
460.50	900.33
460.63	875.00
460.76	842.00
460.89	857.00
461.02	890.00
461.15	898.67
461.28	849.67
461.41	833.00
461.54	950.00
461.67	817.00
461.80	855.33
461.93	890.00
462.06	894.33
462.19	921.00
462.32	842.33
462.45	831.33
462.58	894.67
462.71	851.00
462.84	844.33
462.97	786.00
463.10	853.33
463.23	871.67
463.36	881.67
463.49	856.33
463.62	800.67
463.75	887.00
463.88	833.67
464.01	852.67
464.14	824.67
464.27	958.67
464.40	843.00
464.53	838.00
464.66	890.33
464.79	879.67
464.92	852.67
465.05	807.67
465.18	859.67
465.31	861.33
465.44	840.00
465.57	833.33
465.70	842.00
465.83	971.33
465.96	863.67
466.09	833.33
466.22	915.33
466.35	885.67
466.48	836.00
466.61	837.33
466.74	852.67
466.87	905.00
467.00	886.67
467.13	873.33
467.26	906.67
467.39	822.33
467.52	812.00
467.65	842.67
467.78	934.00
467.91	871.33
468.04	861.67
468.17	827.67
468.30	835.33
468.43	812.00
468.56	832.00
468.69	863.67
468.82	903.00
468.95	824.67
469.08	841.00
469.21	851.00
469.34	904.67
469.47	978.00
469.60	945.67
469.73	854.00
469.86	878.33
469.99	918.33
470.11	822.33
470.24	841.33
470.37	910.67
470.50	868.33
470.63	846.33
470.76	854.67
470.89	904.00
471.02	989.00
471.15	842.33
471.28	851.00
471.41	978.33
471.54	907.00
471.67	842.00
471.80	795.00
471.93	917.67
472.06	889.33
472.19	844.67
472.32	826.00
472.45	985.67
472.58	915.33
472.71	860.00
472.84	839.00
472.97	840.67
473.10	821.33
473.23	891.00
473.36	808.33
473.49	930.67
473.62	924.00
473.74	883.00
473.87	901.33
474.00	838.00
474.13	837.00
474.26	876.00
474.39	893.33
474.52	873.33
474.65	882.33
474.78	882.33
474.91	817.00
475.04	897.33
475.17	1006.67
475.30	889.67
475.43	882.00
475.56	939.33
475.69	873.67
475.82	884.33
475.95	836.33
476.08	950.67
476.21	872.67
476.34	902.33
476.46	894.33
476.59	934.67
476.72	872.67
476.85	854.33
476.98	824.00
477.11	925.33
477.24	883.00
477.37	810.33
477.50	851.33
477.63	893.00
477.76	843.00
477.89	806.67
478.02	826.33
478.15	874.67
478.28	867.33
478.41	885.67
478.54	856.67
478.66	925.33
478.79	874.67
478.92	855.00
479.05	866.33
479.18	885.00
479.31	846.00
479.44	842.33
479.57	844.00
479.70	857.33
479.83	889.67
479.96	857.67
480.09	887.00
480.22	1023.33
480.35	1001.00
480.48	930.67
480.60	878.33
480.73	869.67
480.86	911.00
480.99	856.67
481.12	856.67
481.25	879.33
481.38	951.67
481.51	869.67
481.64	876.67
481.77	907.00
481.90	876.33
482.03	871.33
482.16	861.67
482.29	952.00
482.41	892.00
482.54	896.33
482.67	854.33
482.80	879.00
482.93	935.67
483.06	850.67
483.19	939.00
483.32	908.00
483.45	895.67
483.58	889.67
483.71	908.33
483.84	920.00
483.97	907.67
484.09	882.00
484.22	859.33
484.35	861.67
484.48	824.67
484.61	855.00
484.74	861.00
484.87	903.33
485.00	845.33
485.13	897.00
485.26	839.00
485.39	909.33
485.52	880.33
485.64	947.67
485.77	902.00
485.90	959.33
486.03	845.00
486.16	899.67
486.29	851.33
486.42	899.33
486.55	900.00
486.68	868.33
486.81	896.67
486.94	906.67
487.06	876.67
487.19	908.00
487.32	908.67
487.45	903.00
487.58	875.67
487.71	877.67
487.84	848.67
487.97	925.33
488.10	938.33
488.23	872.00
488.35	842.67
488.48	885.33
488.61	842.00
488.74	856.00
488.87	859.00
489.00	900.00
489.13	996.67
489.26	922.67
489.39	928.00
489.52	931.00
489.64	929.67
489.77	890.67
489.90	896.67
490.03	890.67
490.16	877.33
490.29	860.67
490.42	868.00
490.55	908.33
490.68	862.67
490.81	864.67
490.93	838.33
491.06	966.33
491.19	917.67
491.32	898.33
491.45	907.67
491.58	849.33
491.71	898.00
491.84	873.67
491.97	873.33
492.09	963.33
492.22	914.33
492.35	901.67
492.48	925.67
492.61	905.33
492.74	896.67
492.87	905.00
493.00	885.67
493.12	866.00
493.25	909.67
493.38	880.00
493.51	861.00
493.64	846.33
493.77	906.00
493.90	900.00
494.03	913.33
494.16	960.33
494.28	972.00
494.41	879.67
494.54	879.67
494.67	1027.33
494.80	981.67
494.93	892.00
495.06	910.67
495.19	928.67
495.31	904.00
495.44	887.00
495.57	860.00
495.70	919.00
495.83	887.00
495.96	854.67
496.09	900.00
496.22	978.00
496.34	1019.33
496.47	888.00
496.60	915.00
496.73	962.00
496.86	948.67
496.99	863.33
497.12	900.67
497.24	835.67
497.37	907.67
497.50	874.00
497.63	862.33
497.76	897.00
497.89	980.67
498.02	925.67
498.15	815.00
498.27	905.33
498.40	954.00
498.53	975.00
498.66	917.67
498.79	958.33
498.92	864.33
499.05	913.00
499.17	900.67
499.30	944.33
499.43	1001.33
499.56	916.00
499.69	838.67
499.82	919.00
499.95	894.33
500.07	875.33
500.20	902.67
500.33	953.33
500.46	1069.67
500.59	914.33
500.72	914.33
500.85	959.00
500.97	960.00
501.10	950.67
501.23	865.67
501.36	920.33
501.49	983.33
501.62	927.33
501.75	907.33
501.87	968.00
502.00	854.67
502.13	913.33
502.26	910.33
502.39	888.33
502.52	902.67
502.64	852.67
502.77	886.67
502.90	942.00
503.03	911.33
503.16	885.67
503.29	875.00
503.42	979.67
503.54	924.00
503.67	901.00
503.80	913.00
503.93	955.33
504.06	868.67
504.19	898.00
504.31	966.00
504.44	927.33
504.57	933.33
504.70	916.33
504.83	858.33
504.96	934.00
505.08	914.00
505.21	911.00
505.34	1009.67
505.47	975.67
505.60	945.67
505.73	965.00
505.85	961.00
505.98	1058.33
506.11	916.00
506.24	883.33
506.37	869.67
506.50	916.00
506.62	959.00
506.75	891.67
506.88	879.67
507.01	935.00
507.14	871.00
507.27	900.33
507.39	866.67
507.52	898.33
507.65	897.67
507.78	914.67
507.91	875.67
508.04	972.67
508.16	981.33
508.29	929.33
508.42	901.67
508.55	884.33
508.68	887.33
508.81	951.67
508.93	901.33
509.06	904.33
509.19	967.33
509.32	941.33
509.45	928.00
509.57	950.00
509.70	888.67
509.83	917.67
509.96	883.00
510.09	930.33
510.22	931.67
510.34	918.67
510.47	911.33
510.60	1028.33
510.73	940.67
510.86	953.67
510.98	913.33
511.11	908.67
511.24	978.33
511.37	938.67
511.50	900.67
511.63	929.33
511.75	940.00
511.88	913.00
512.01	931.67
512.14	942.33
512.27	938.33
512.39	911.33
512.52	912.00
512.65	927.33
512.78	901.33
512.91	928.00
513.03	921.00
513.16	969.67
513.29	932.67
513.42	904.33
513.55	880.00
513.67	948.00
513.80	881.00
513.93	901.67
514.06	908.33
514.19	948.67
514.31	951.33
514.44	959.00
514.57	912.67
514.70	938.00
514.83	991.00
514.95	893.00
515.08	929.33
515.21	961.67
515.34	944.33
515.47	923.33
515.59	902.67
515.72	960.67
515.85	965.67
515.98	978.67
516.11	928.00
516.23	973.00
516.36	1006.00
516.49	943.33
516.62	927.33
516.75	996.67
516.87	998.33
517.00	913.33
517.13	954.33
517.26	988.67
517.39	958.00
517.51	873.00
517.64	915.67
517.77	1014.00
517.90	898.33
518.02	922.00
518.15	894.00
518.28	855.00
518.41	933.67
518.54	920.33
518.66	933.00
518.79	887.67
518.92	908.00
519.05	901.00
519.18	918.00
519.30	957.00
519.43	895.00
519.56	901.33
519.69	913.67
519.81	986.00
519.94	920.67
520.07	859.67
520.20	903.33
520.33	940.33
520.45	1000.33
520.58	935.33
520.71	940.67
520.84	990.33
520.96	956.33
521.09	921.33
521.22	897.67
521.35	980.00
521.48	986.00
521.60	916.67
521.73	933.67
521.86	1010.00
521.99	1030.00
522.11	942.33
522.24	917.33
522.37	967.33
522.50	944.33
522.62	986.67
522.75	878.67
522.88	956.00
523.01	924.67
523.14	953.67
523.26	939.67
523.39	1026.67
523.52	921.33
523.65	1022.00
523.77	967.33
523.90	940.67
524.03	924.67
524.16	919.33
524.28	920.33
524.41	929.33
524.54	939.00
524.67	897.33
524.79	921.00
524.92	968.00
525.05	1030.33
525.18	895.00
525.31	962.67
525.43	904.33
525.56	1063.67
525.69	918.67
525.82	873.00
525.94	976.33
526.07	988.00
526.20	967.33
526.33	981.33
526.45	1076.33
526.58	1036.00
526.71	938.67
526.84	937.67
526.96	941.67
527.09	923.67
527.22	924.33
527.35	925.00
527.47	902.33
527.60	1030.67
527.73	905.33
527.86	950.33
527.98	966.00
528.11	965.00
528.24	900.00
528.37	924.33
528.49	903.67
528.62	944.00
528.75	966.67
528.88	911.67
529.00	972.33
529.13	1008.33
529.26	931.00
529.39	971.00
529.51	1071.33
529.64	1050.00
529.77	917.67
529.90	932.00
530.02	933.33
530.15	909.67
530.28	872.67
530.40	910.67
530.53	938.33
530.66	980.33
530.79	931.67
530.91	944.00
531.04	925.00
531.17	941.67
531.30	932.00
531.42	936.00
531.55	947.00
531.68	1031.67
531.81	924.33
531.93	927.67
532.06	952.00
532.19	915.67
532.31	933.00
532.44	922.67
532.57	975.00
532.70	920.00
532.82	941.00
532.95	967.67
533.08	1007.67
533.21	979.67
533.33	906.00
533.46	919.67
533.59	929.67
533.71	1056.33
533.84	946.33
533.97	917.67
534.10	935.67
534.22	918.00
534.35	932.33
534.48	943.00
534.61	967.67
534.73	876.00
534.86	903.67
534.99	945.67
535.11	1004.67
535.24	962.33
535.37	922.33
535.50	895.00
535.62	917.00
535.75	1018.33
535.88	949.67
536.00	922.00
536.13	920.00
536.26	936.00
536.39	926.00
536.51	887.67
536.64	969.33
536.77	946.67
536.89	946.33
537.02	954.67
537.15	977.00
537.28	945.00
537.40	955.00
537.53	923.67
537.66	1011.00
537.78	967.67
537.91	913.00
538.04	922.00
538.17	997.33
538.29	977.33
538.42	1015.00
538.55	988.33
538.67	978.67
538.80	927.33
538.93	958.67
539.05	951.00
539.18	1027.33
539.31	1002.00
539.44	949.33
539.56	865.67
539.69	945.67
539.82	941.67
539.94	925.00
540.07	915.00
540.20	1020.67
540.32	929.00
540.45	934.33
540.58	935.67
540.71	1000.00
540.83	897.00
540.96	932.00
541.09	956.00
541.21	1038.00
541.34	1026.33
541.47	919.00
541.59	947.00
541.72	1032.00
541.85	1111.33
541.98	999.00
542.10	951.33
542.23	979.00
542.36	1088.00
542.48	973.00
542.61	951.67
542.74	911.67
542.86	940.33
542.99	938.67
543.12	927.67
543.24	974.33
543.37	903.67
543.50	946.00
543.62	926.00
543.75	944.33
543.88	946.00
544.01	962.33
544.13	979.67
544.26	990.67
544.39	937.33
544.51	924.67
544.64	917.00
544.77	979.67
544.89	941.33
545.02	964.00
545.15	931.33
545.27	1057.33
545.40	1017.00
545.53	985.33
545.65	982.67
545.78	882.67
545.91	918.67
546.03	946.00
546.16	950.67
546.29	948.67
546.41	920.67
546.54	939.33
546.67	928.00
546.79	1001.00
546.92	1037.67
547.05	913.00
547.17	956.00
547.30	930.00
547.43	984.00
547.56	915.67
547.68	930.33
547.81	913.00
547.94	989.33
548.06	941.33
548.19	922.33
548.32	1028.33
548.44	967.67
548.57	966.67
548.70	997.00
548.82	1003.67
548.95	995.00
549.08	957.33
549.20	950.00
549.33	1051.33
549.45	967.67
549.58	953.67
549.71	901.33
549.83	1013.67
549.96	914.00
550.09	949.33
550.21	931.00
550.34	972.33
550.47	944.00
550.59	943.67
550.72	886.67
550.85	957.33
550.97	1009.33
551.10	943.00
551.23	946.00
551.35	1029.33
551.48	975.33
551.61	956.00
551.73	948.67
551.86	1048.67
551.99	1042.67
552.11	955.67
552.24	991.67
552.37	967.33
552.49	928.33
552.62	943.33
552.75	1001.67
552.87	956.00
553.00	943.67
553.12	974.33
553.25	954.33
553.38	989.33
553.50	1021.67
553.63	948.67
553.76	910.33
553.88	970.00
554.01	964.33
554.14	962.00
554.26	987.33
554.39	1052.67
554.52	974.33
554.64	959.67
554.77	945.67
554.89	1004.00
555.02	1034.00
555.15	972.67
555.27	950.00
555.40	962.00
555.53	1031.00
555.65	960.67
555.78	926.33
555.91	1012.33
556.03	1052.33
556.16	932.67
556.29	969.33
556.41	1041.33
556.54	1039.67
556.66	963.33
556.79	944.00
556.92	984.33
557.04	1000.67
557.17	953.67
557.30	954.00
557.42	946.33
557.55	961.33
557.67	985.67
557.80	953.33
557.93	966.00
558.05	977.33
558.18	930.00
558.31	966.33
558.43	1023.00
558.56	991.33
558.68	960.00
558.81	940.67
558.94	959.33
559.06	1096.67
559.19	959.67
559.32	951.33
559.44	922.67
559.57	978.00
559.69	941.67
559.82	945.33
559.95	959.33
560.07	958.67
560.20	878.67
560.33	965.00
560.45	981.33
560.58	921.33
560.70	970.33
560.83	935.33
560.96	966.33
561.08	969.33
561.21	997.33
561.33	938.00
561.46	927.33
561.59	1018.33
561.71	951.33
561.84	975.67
561.97	949.67
562.09	1023.00
562.22	946.67
562.34	928.00
562.47	1003.00
562.60	997.00
562.72	965.33
562.85	964.33
562.97	971.00
563.10	959.67
563.23	918.67
563.35	931.67
563.48	995.00
563.60	962.00
563.73	992.00
563.86	922.67
563.98	942.00
564.11	972.67
564.23	954.33
564.36	1028.00
564.49	976.33
564.61	1054.33
564.74	988.00
564.86	944.33
564.99	1028.33
565.12	1016.33
565.24	1029.00
565.37	1022.67
565.49	1027.67
565.62	1056.67
565.75	1014.00
565.87	939.67
566.00	1117.33
566.12	1042.67
566.25	977.33
566.38	1015.00
566.50	984.33
566.63	1031.67
566.75	970.67
566.88	941.67
567.01	925.67
567.13	964.00
567.26	969.33
567.38	954.33
567.51	1033.67
567.64	955.00
567.76	999.67
567.89	987.00
568.01	949.33
568.14	937.33
568.26	972.33
568.39	985.33
568.52	988.00
568.64	1027.33
568.77	966.67
568.89	947.67
569.02	945.33
569.15	982.00
569.27	973.67
569.40	997.00
569.52	1019.33
569.65	962.67
569.77	958.00
569.90	931.00
570.03	936.33
570.15	1059.00
570.28	976.33
570.40	976.00
570.53	976.67
570.66	1048.33
570.78	1018.67
570.91	978.33
571.03	947.67
571.16	987.33
571.28	938.67
571.41	921.33
571.54	922.00
571.66	914.33
571.79	951.00
571.91	938.33
572.04	924.33
572.16	988.00
572.29	1014.00
572.42	960.33
572.54	991.33
572.67	953.00
572.79	999.67
572.92	962.67
573.04	1019.33
573.17	1036.67
573.29	972.33
573.42	962.00
573.55	1011.00
573.67	1011.00
573.80	986.00
573.92	940.67
574.05	986.00
574.17	1045.33
574.30	980.33
574.43	960.33
574.55	955.67
574.68	999.33
574.80	975.67
574.93	976.00
575.05	953.67
575.18	965.33
575.30	970.00
575.43	1001.00
575.56	1047.00
575.68	1009.00
575.81	971.33
575.93	947.67
576.06	1000.00
576.18	1022.33
576.31	985.33
576.43	962.00
576.56	1104.00
576.69	1050.67
576.81	997.33
576.94	960.67
577.06	990.00
577.19	1025.67
577.31	1001.00
577.44	1002.00
577.56	1042.67
577.69	1007.33
577.82	992.67
577.94	953.33
578.07	932.67
578.19	1025.00
578.32	1006.00
578.44	952.67
578.57	974.33
578.69	1038.33
578.82	987.33
578.94	1012.33
579.07	1037.67
579.19	1027.00
579.32	1001.33
579.45	1001.00
579.57	996.00
579.70	951.00
579.82	992.33
579.95	969.00
580.07	1064.67
580.20	989.67
580.32	983.33
580.45	1015.33
580.57	1020.67
580.70	1032.67
580.82	1010.67
580.95	1021.67
581.08	947.00
581.20	1047.33
581.33	979.33
581.45	1004.00
581.58	1017.00
581.70	1013.33
581.83	914.00
581.95	1001.67
582.08	1021.33
582.20	997.00
582.33	978.67
582.45	962.33
582.58	985.00
582.70	1017.67
582.83	960.00
582.95	983.00
583.08	1028.33
583.21	1050.67
583.33	999.00
583.46	967.33
583.58	957.33
583.71	1033.33
583.83	1004.67
583.96	1007.67
584.08	1033.00
584.21	1035.67
584.33	1014.67
584.46	981.33
584.58	940.67
584.71	1034.00
584.83	1027.33
584.96	1005.33
585.08	973.00
585.21	1110.33
585.33	1063.33
585.46	1019.67
585.58	1036.00
585.71	970.67
585.83	989.67
585.96	1027.33
586.08	1030.67
586.21	1019.00
586.33	1021.33
586.46	947.00
586.59	1029.00
586.71	975.00
586.84	1014.33
586.96	990.33
587.09	935.00
587.21	975.67
587.34	1026.00
587.46	979.33
587.59	958.00
587.71	986.00
587.84	965.67
587.96	930.67
588.09	953.00
588.21	1016.00
588.34	971.33
588.46	999.00
588.59	973.67
588.71	1018.67
588.84	1014.00
588.96	985.67
589.09	1100.67
589.21	1010.33
589.34	978.67
589.46	995.00
589.59	1019.33
589.71	1060.00
589.84	953.67
589.96	973.33
590.09	1008.00
590.21	1041.00
590.34	1007.33
590.46	1019.33
590.59	977.33
590.71	995.33
590.84	1034.33
590.96	964.67
591.09	1043.00
591.21	1013.33
591.34	976.00
591.46	981.33
591.59	1059.33
591.71	1050.33
591.83	1003.67
591.96	934.33
592.08	979.67
592.21	1027.33
592.33	1001.67
592.46	986.67
592.58	1023.33
592.71	1052.00
592.83	1095.00
592.96	1034.00
593.08	1062.00
593.21	963.67
593.33	949.00
593.46	997.33
593.58	990.00
593.71	1055.33
593.83	1041.00
593.96	963.00
594.08	1121.00
594.21	999.00
594.33	978.00
594.46	967.67
594.58	952.33
594.71	944.67
594.83	999.00
594.96	998.67
595.08	1176.00
595.20	1057.33
595.33	1009.00
595.45	970.67
595.58	1093.67
595.70	1028.67
595.83	988.67
595.95	998.67
596.08	1027.00
596.20	972.67
596.33	948.67
596.45	999.33
596.58	969.00
596.70	955.00
596.83	982.33
596.95	989.00
597.08	1003.00
597.20	958.67
597.32	978.33
597.45	1008.00
597.57	994.67
597.70	1033.67
597.82	988.33
597.95	1001.00
598.07	1004.67
598.20	1009.00
598.32	994.67
598.45	996.00
598.57	1054.67
598.70	1070.33
598.82	983.33
598.94	981.67
599.07	1056.67
599.19	1008.67
599.32	966.33
599.44	902.67
599.57	1055.67
599.69	1028.00
599.82	981.33
599.94	957.33
600.07	1051.00
600.19	1021.33
600.31	973.67
600.44	1026.33
600.56	1119.33
600.69	1112.33
600.81	992.67
600.94	999.67
601.06	1008.67
601.19	1038.33
601.31	1043.00
601.44	947.00
601.56	1070.67
601.68	1032.33
601.81	1012.33
601.93	1014.67
602.06	1032.00
602.18	977.33
602.31	994.67
602.43	1059.33
602.56	1051.00
602.68	1006.67
602.80	1004.00
602.93	1022.33
603.05	988.33
603.18	1020.67
603.30	968.33
603.43	970.33
603.55	1002.67
603.68	1024.00
603.80	1007.00
603.92	1001.33
604.05	988.67
604.17	987.00
604.30	964.00
604.42	981.00
604.55	1005.00
604.67	1060.00
604.79	993.67
604.92	1010.00
605.04	990.67
605.17	987.67
605.29	983.00
605.42	980.00
605.54	1089.33
605.66	1033.67
605.79	1026.33
605.91	1008.00
606.04	1011.67
606.16	1000.33
606.29	1018.67
606.41	977.67
606.53	1001.00
606.66	966.00
606.78	996.33
606.91	987.33
607.03	1003.33
607.16	985.33
607.28	968.33
607.40	1007.33
607.53	1040.00
607.65	973.67
607.78	983.67
607.90	1008.00
608.03	1130.00
608.15	1030.00
608.27	1014.00
608.40	968.00
608.52	1037.00
608.65	1015.67
608.77	1039.00
608.89	1007.67
609.02	1096.00
609.14	1090.67
609.27	1037.00
609.39	1042.67
609.52	991.33
609.64	951.00
609.76	982.33
609.89	991.67
610.01	1073.00
610.14	1055.33
610.26	1007.33
610.38	979.67
610.51	1067.33
610.63	1012.00
610.76	975.67
610.88	1036.00
611.01	1077.67
611.13	1123.67
611.25	1037.33
611.38	982.33
611.50	1013.00
611.63	1048.00
611.75	1019.67
611.87	1027.33
612.00	1005.00
612.12	1064.33
612.25	1015.33
612.37	982.67
612.49	1074.67
612.62	1074.33
612.74	1083.00
612.87	1008.00
612.99	1014.67
613.11	963.67
613.24	1003.67
613.36	1002.33
613.49	1026.67
613.61	1020.33
613.73	1003.00
613.86	1051.00
613.98	974.33
614.11	1057.33
614.23	1057.00
614.35	1052.67
614.48	1060.00
614.60	1033.33
614.72	1002.33
614.85	1032.00
614.97	1028.00
615.10	1030.67
615.22	1008.00
615.34	1017.33
615.47	1070.00
615.59	990.67
615.72	1016.67
615.84	1023.67
615.96	991.67
616.09	1113.00
616.21	1008.00
616.34	992.67
616.46	1025.00
616.58	1059.00
616.71	1049.00
616.83	1060.67
616.95	1057.00
617.08	1054.67
617.20	1008.67
617.33	970.33
617.45	1010.67
617.57	1041.67
617.70	1034.67
617.82	996.33
617.95	1021.33
618.07	1097.33
618.19	1030.67
618.32	1026.00
618.44	992.33
618.56	986.33
618.69	947.00
618.81	961.00
618.94	1059.33
619.06	1023.00
619.18	1009.33
619.31	974.00
619.43	977.67
619.55	1041.67
619.68	1051.00
619.80	982.00
619.92	1044.33
620.05	1161.67
620.17	1083.00
620.30	1018.00
620.42	1039.33
620.54	1077.00
620.67	999.00
620.79	1029.33
620.91	1044.00
621.04	1088.67
621.16	1019.67
621.29	988.33
621.41	967.00
621.53	1004.33
621.66	1009.00
621.78	1002.00
621.90	1073.00
622.03	1123.67
622.15	1011.00
622.27	1009.00
622.40	1046.67
622.52	1008.00
622.64	1000.00
622.77	984.33
622.89	1048.00
623.02	1066.00
623.14	1028.33
623.26	1052.67
623.39	1034.67
623.51	1078.33
623.63	1003.67
623.76	987.33
623.88	1109.00
624.00	1037.00
624.13	980.67
624.25	976.67
624.37	990.33
624.50	1065.67
624.62	1034.00
624.75	977.67
624.87	985.00
624.99	1048.00
625.12	991.33
625.24	997.67
625.36	1107.67
625.49	1064.67
625.61	1042.33
625.73	1038.00
625.86	1062.67
625.98	1038.00
626.10	995.33
626.23	963.67
626.35	1054.67
626.47	1027.67
626.60	983.33
626.72	998.00
626.84	1008.00
626.97	1054.67
627.09	1021.33
627.21	1011.67
627.34	1138.00
627.46	1140.00
627.58	1021.00
627.71	1042.00
627.83	1063.00
627.95	992.33
628.08	1018.67
628.20	1032.00
628.32	955.67
628.45	934.33
628.57	960.33
628.69	983.67
628.82	1040.67
628.94	1088.67
629.06	1026.33
629.19	1003.67
629.31	1064.00
629.43	992.67
629.56	1036.00
629.68	1029.33
629.80	1091.00
629.93	992.67
630.05	984.67
630.17	984.33
630.30	1028.33
630.42	1005.67
630.54	1045.33
630.67	1019.33
630.79	1004.00
630.91	1157.67
631.04	1047.67
631.16	1035.67
631.28	1043.33
631.41	1003.00
631.53	974.33
631.65	1019.33
631.78	1053.33
631.90	1036.00
632.02	1017.67
632.14	934.67
632.27	1089.67
632.39	1035.67
632.51	992.33
632.64	1067.00
632.76	1029.67
632.88	1016.00
633.01	1041.00
633.13	1003.33
633.25	1034.33
633.38	1157.00
633.50	967.67
633.62	975.00
633.75	966.00
633.87	955.00
633.99	1041.33
634.11	984.67
634.24	1004.67
634.36	1023.67
634.48	1016.00
634.61	1002.67
634.73	1061.33
634.85	1013.33
634.98	999.00
635.10	1006.00
635.22	1022.33
635.35	1137.33
635.47	1034.33
635.59	1011.67
635.71	1067.00
635.84	1081.67
635.96	1005.00
636.08	1068.00
636.21	998.33
636.33	1048.67
636.45	1018.00
636.58	997.00
636.70	977.00
636.82	1051.67
636.94	999.67
637.07	959.00
637.19	1066.67
637.31	1062.67
637.44	1043.67
637.56	963.33
637.68	1042.00
637.81	1054.67
637.93	1035.00
638.05	990.00
638.17	1082.00
638.30	1158.00
638.42	1035.33
638.54	1000.67
638.67	1009.33
638.79	1039.00
638.91	1001.00
639.03	1005.67
639.16	1026.00
639.28	1025.00
639.40	1033.33
639.53	1008.00
639.65	1066.67
639.77	1031.33
639.89	1035.00
640.02	1018.00
640.14	1046.67
640.26	989.00
640.39	1052.67
640.51	1007.00
640.63	1057.00
640.75	1089.67
640.88	1020.00
641.00	997.00
641.12	1010.33
641.24	1119.00
641.37	998.00
641.49	992.33
641.61	1132.33
641.74	1020.33
641.86	1041.00
641.98	985.33
642.10	1042.67
642.23	1052.67
642.35	1005.67
642.47	1032.00
642.60	1038.00
642.72	1063.33
642.84	969.33
642.96	984.33
643.09	971.67
643.21	981.00
643.33	992.00
643.45	987.67
643.58	1085.67
643.70	1108.33
643.82	1009.67
643.94	1012.33
644.07	1035.67
644.19	1047.33
644.31	1036.00
644.44	1025.00
644.56	1026.67
644.68	1000.67
644.80	986.33
644.93	985.00
645.05	1001.00
645.17	1041.67
645.29	1035.33
645.42	1024.33
645.54	1035.67
645.66	1057.33
645.78	1020.00
645.91	1005.33
646.03	1055.00
646.15	1107.67
646.27	995.33
646.40	1027.00
646.52	1073.33
646.64	1091.33
646.76	1037.67
646.89	968.00
647.01	1073.00
647.13	1074.33
647.25	1060.67
647.38	1020.67
647.50	1005.00
647.62	1080.33
647.74	972.67
647.87	977.33
647.99	1046.33
648.11	1066.00
648.23	1017.00
648.36	971.00
648.48	1097.67
648.60	1041.00
648.72	999.00
648.85	992.33
648.97	1084.00
649.09	1057.67
649.21	999.33
649.34	1042.67
649.46	1046.00
649.58	1040.00
649.70	1058.33
649.83	1000.33
649.95	1079.67
650.07	1074.00
650.19	1065.33
650.32	1036.67
650.44	1090.33
650.56	1052.67
650.68	1006.67
650.81	1010.00
650.93	1024.67
651.05	1112.33
651.17	998.33
651.29	1060.67
651.42	1040.00
651.54	1061.67
651.66	998.33
651.78	1002.00
651.91	1063.67
652.03	1168.33
652.15	1058.33
652.27	1007.67
652.40	1055.33
652.52	1033.00
652.64	1032.67
652.76	1020.33
652.88	1145.67
653.01	1038.00
653.13	1006.67
653.25	977.67
653.37	1075.33
653.50	1097.00
653.62	1046.00
653.74	984.67
653.86	1094.00
653.98	1074.00
654.11	1000.00
654.23	1016.00
654.35	1003.00
654.47	1164.67
654.60	1025.67
654.72	1012.33
654.84	995.67
654.96	1086.67
655.08	1010.33
655.21	1048.67
655.33	1044.33
655.45	1101.00
655.57	1052.33
655.70	1035.00
655.82	1095.67
655.94	1134.00
656.06	1070.00
656.18	1000.67
656.31	1104.33
656.43	1075.00
656.55	1007.67
656.67	1019.67
656.79	1042.33
656.92	1100.00
657.04	1053.67
657.16	1022.33
657.28	1172.33
657.40	1067.67
657.53	1078.00
657.65	1030.33
657.77	1104.00
657.89	1109.33
658.01	1026.33
658.14	1001.67
658.26	1081.67
658.38	1031.00
658.50	1002.33
658.62	996.33
658.75	1172.67
658.87	1087.00
658.99	1069.00
659.11	1017.00
659.23	1095.33
659.36	1158.33
659.48	1100.00
659.60	1062.67
659.72	1059.67
659.84	1041.33
659.97	1069.00
660.09	1075.67
660.21	1171.67
660.33	1107.00
660.45	998.67
660.58	971.33
660.70	1021.67
660.82	1035.00
660.94	995.00
661.06	1033.67
661.19	1114.67
661.31	1100.33
661.43	1037.33
661.55	1030.00
661.67	1092.33
661.80	1128.33
661.92	1044.00
662.04	1034.67
662.16	1062.33
662.28	1125.00
662.40	1047.33
662.53	1050.67
662.65	1075.67
662.77	1026.00
662.89	1054.67
663.01	1022.67
663.14	1053.00
663.26	1082.67
663.38	1048.67
663.50	1006.33
663.62	1027.33
663.74	1052.33
663.87	1020.00
663.99	1053.00
664.11	1078.33
664.23	1188.00
664.35	1043.67
664.48	1034.33
664.60	1036.33
664.72	1041.33
664.84	1006.00
664.96	1027.00
665.08	1097.33
665.21	1080.67
665.33	1081.33
665.45	990.00
665.57	1059.00
665.69	1152.67
665.81	1046.00
665.94	1004.67
666.06	1016.33
666.18	1066.33
666.30	1026.67
666.42	1021.00
666.54	1069.33
666.67	1096.00
666.79	1019.00
666.91	1076.00
667.03	1035.00
667.15	1020.00
667.27	1038.33
667.40	1016.67
667.52	1047.00
667.64	1091.67
667.76	1030.67
667.88	1010.67
668.00	1084.67
668.13	1096.67
668.25	1018.67
668.37	1010.67
668.49	1024.00
668.61	1110.00
668.73	1041.33
668.85	1053.67
668.98	1081.33
669.10	1082.00
669.22	1039.33
669.34	1041.33
669.46	1107.67
669.58	1032.33
669.71	1060.33
669.83	1045.33
669.95	1046.00
670.07	1051.67
670.19	1031.00
670.31	1031.00
670.43	1044.33
670.56	1090.67
670.68	1100.00
670.80	1068.00
670.92	1076.33
671.04	1133.33
671.16	1053.67
671.28	1049.67
671.41	1037.33
671.53	1092.00
671.65	1038.00
671.77	1041.00
671.89	1218.67
672.01	1156.67
672.13	1077.00
672.26	1022.33
672.38	1068.67
672.50	1033.67
672.62	1046.00
672.74	1068.00
672.86	1056.67
672.98	1067.67
673.11	1055.67
673.23	1065.67
673.35	1124.00
673.47	1064.67
673.59	1052.33
673.71	1011.67
673.83	1095.33
673.96	1178.33
674.08	1053.67
674.20	1009.33
674.32	1053.67
674.44	1062.67
674.56	1074.67
674.68	1075.33
674.80	1100.33
674.93	1073.67
675.05	1050.00
675.17	1058.33
675.29	1104.33
675.41	1109.67
675.53	1048.67
675.65	1028.33
675.77	1052.00
675.90	1125.67
676.02	1038.33
676.14	1022.33
676.26	1145.33
676.38	1179.00
676.50	1061.67
676.62	1078.67
676.74	1026.33
676.87	1056.00
676.99	1069.00
677.11	1101.00
677.23	1090.33
677.35	1108.67
677.47	1011.00
677.59	1032.00
677.71	1091.33
677.83	1121.33
677.96	1064.00
678.08	1046.00
678.20	1070.00
678.32	1042.00
678.44	1063.67
678.56	1058.33
678.68	1231.33
678.80	1121.67
678.93	1051.33
679.05	1073.67
679.17	1079.33
679.29	1125.00
679.41	1061.00
679.53	1038.33
679.65	1043.00
679.77	1074.67
679.89	1050.67
680.01	1098.67
680.14	1112.33
680.26	1002.67
680.38	1053.00
680.50	1090.67
680.62	1171.00
680.74	1107.67
680.86	1062.00
680.98	1075.67
681.10	1099.00
681.22	1194.67
681.35	1050.00
681.47	1051.00
681.59	1039.33
681.71	1165.33
681.83	1061.00
681.95	1028.00
682.07	1137.33
682.19	1101.00
682.31	1046.33
682.43	1036.67
682.56	1113.67
682.68	1016.67
682.80	1032.33
682.92	1085.67
683.04	1080.33
683.16	1068.33
683.28	1033.00
683.40	1088.00
683.52	1075.33
683.64	1098.67
683.76	1030.67
683.89	1048.33
684.01	1062.00
684.13	1141.33
684.25	1065.00
684.37	1068.67
684.49	1097.67
684.61	1064.33
684.73	1066.67
684.85	1066.67
684.97	1037.33
685.09	1144.00
685.21	1030.67
685.34	1072.67
685.46	1221.33
685.58	1106.00
685.70	1080.00
685.82	1114.00
685.94	1058.67
686.06	1047.67
686.18	1040.33
686.30	1058.33
686.42	1030.33
686.54	1114.67
686.66	1036.33
686.79	1146.33
686.91	1097.33
687.03	1195.33
687.15	1088.33
687.27	1061.00
687.39	1077.67
687.51	1157.33
687.63	1077.00
687.75	1120.33
687.87	1095.33
687.99	1166.67
688.11	1044.33
688.23	1081.67
688.35	1136.00
688.48	1115.67
688.60	1030.67
688.72	1064.33
688.84	1097.00
688.96	1125.67
689.08	1077.33
689.20	1066.67
689.32	1210.33
689.44	1108.33
689.56	1028.00
689.68	1058.33
689.80	1068.33
689.92	1040.00
690.04	1045.00
690.16	1103.33
690.28	1116.00
690.41	1108.33
690.53	1050.67
690.65	1117.33
690.77	1139.67
690.89	1141.67
691.01	1090.00
691.13	1054.33
691.25	1047.00
691.37	1079.33
691.49	1019.67
691.61	1029.33
691.73	1156.33
691.85	1086.33
691.97	1062.00
692.09	1056.67
692.21	1124.33
692.33	1159.33
692.45	1090.33
692.57	1061.67
692.70	1095.33
692.82	1117.00
692.94	1027.33
693.06	1057.33
693.18	1085.00
693.30	1069.67
693.42	1044.67
693.54	1077.00
693.66	1098.00
693.78	1110.67
693.90	1057.67
694.02	1086.67
694.14	1116.00
694.26	1074.67
694.38	1082.67
694.50	1092.00
694.62	1102.33
694.74	1049.33
694.86	1036.67
694.98	1084.67
695.10	1106.67
695.22	1145.67
695.34	1049.67
695.46	1059.33
695.58	1070.33
695.71	1109.33
695.83	1063.67
695.95	1057.33
696.07	1149.67
696.19	1047.33
696.31	1060.67
696.43	1031.67
696.55	1177.67
696.67	1103.67
696.79	1069.33
696.91	1086.00
697.03	1064.67
697.15	1167.33
697.27	1092.67
697.39	1056.67
697.51	1137.00
697.63	1052.67
697.75	1042.67
697.87	1072.67
697.99	1032.33
698.11	1017.00
698.23	1041.33
698.35	1056.00
698.47	1056.67
698.59	1101.67
698.71	1072.33
698.83	1115.00
698.95	1062.00
699.07	1102.00
699.19	1063.00
699.31	1072.00
699.43	1049.00
699.55	1110.33
699.67	1062.00
699.79	1070.00
699.91	1071.33
700.03	1088.33
700.15	1085.67
700.27	1054.33
700.39	1076.67
700.51	1043.67
700.63	1062.33
700.75	1058.00
700.87	1100.00
700.99	1074.00
701.11	1112.00
701.24	1078.00
701.36	1129.00
701.48	1146.00
701.60	1116.00
701.72	1056.33
701.84	1171.00
701.96	1108.33
702.08	1082.67
702.20	1162.00
702.32	1131.33
702.44	1122.00
702.56	1072.00
702.68	1077.00
702.80	1094.00
702.92	1191.00
703.04	1143.67
703.16	1087.33
703.28	1101.00
703.40	1078.00
703.52	1100.33
703.64	1105.00
703.76	1123.67
703.88	1071.33
704.00	1061.67
704.12	1086.33
704.24	1144.67
704.36	1102.67
704.48	1096.67
704.60	1039.00
704.72	1088.33
704.84	1074.33
704.96	1116.67
705.07	1096.33
705.19	1065.00
705.31	1092.67
705.43	1122.00
705.55	1060.00
705.67	1125.33
705.79	1102.67
705.91	1025.67
706.03	1095.33
706.15	1112.00
706.27	1086.33
706.39	1086.33
706.51	1066.00
706.63	1071.67
706.75	1116.67
706.87	1098.00
706.99	1153.33
707.11	1108.67
707.23	1088.00
707.35	1117.33
707.47	1088.67
707.59	1126.33
707.71	1125.33
707.83	1070.33
707.95	1131.67
708.07	1094.67
708.19	1245.33
708.31	1108.67
708.43	1060.00
708.55	1120.67
708.67	1173.33
708.79	1101.33
708.91	1126.33
709.03	1112.00
709.15	1156.00
709.27	1070.33
709.39	1092.33
709.51	1079.00
709.63	1124.33
709.75	1117.00
709.87	1048.00
709.99	1137.00
710.11	1084.67
710.23	1082.00
710.35	1056.00
710.47	1220.00
710.58	1166.33
710.70	1150.33
710.82	1143.33
710.94	1102.33
711.06	1099.33
711.18	1103.67
711.30	1078.00
711.42	1146.67
711.54	1097.00
711.66	1121.33
711.78	1072.67
711.90	1135.67
712.02	1170.67
712.14	1066.67
712.26	1045.67
712.38	1157.00
712.50	1168.33
712.62	1086.67
712.74	1094.33
712.86	1087.67
712.98	1159.00
713.10	1075.67
713.22	1054.67
713.34	1108.33
713.45	1077.67
713.57	1129.67
713.69	1070.67
713.81	1096.00
713.93	1128.00
714.05	1095.00
714.17	1064.00
714.29	1180.33
714.41	1160.00
714.53	1089.33
714.65	1126.67
714.77	1116.00
714.89	1063.00
715.01	1154.67
715.13	1076.33
715.25	1127.33
715.37	1086.00
715.49	1050.00
715.61	1125.33
715.72	1134.67
715.84	1159.00
715.96	1092.33
716.08	1096.67
716.20	1181.00
716.32	1164.00
716.44	1101.33
716.56	1106.00
716.68	1125.00
716.80	1222.67
716.92	1168.67
717.04	1118.00
717.16	1142.33
717.28	1108.67
717.40	1097.00
717.52	1107.67
717.63	1087.33
717.75	1120.67
717.87	1121.33
717.99	1121.33
718.11	1103.67
718.23	1189.67
718.35	1129.67
718.47	1094.00
718.59	1049.67
718.71	1118.67
718.83	1087.33
718.95	1130.33
719.07	1068.00
719.19	1101.67
719.30	1097.00
719.42	1126.00
719.54	1111.33
719.66	1120.33
719.78	1117.00
719.90	1037.00
720.02	1105.33
720.14	1133.00
720.26	1136.33
720.38	1134.67
720.50	1097.33
720.62	1050.00
720.74	1108.67
720.85	1110.33
720.97	1185.33
721.09	1223.00
721.21	1103.33
721.33	1173.33
721.45	1121.00
721.57	1135.33
721.69	1076.67
721.81	1047.67
721.93	1187.67
722.05	1139.67
722.16	1076.33
722.28	1041.67
722.40	1095.33
722.52	1166.67
722.64	1175.00
722.76	1066.67
722.88	1131.67
723.00	1149.33
723.12	1087.00
723.24	1125.33
723.36	1038.00
723.47	1162.67
723.59	1115.67
723.71	1092.33
723.83	1154.67
723.95	1107.33
724.07	1102.67
724.19	1147.67
724.31	1211.00
724.43	1096.33
724.55	1038.00
724.66	1074.67
724.78	1257.67
724.90	1078.67
725.02	1070.00
725.14	1091.00
725.26	1124.67
725.38	1050.00
725.50	1106.33
725.62	1117.67
725.74	1126.00
725.85	1108.00
725.97	1116.67
726.09	1177.33
726.21	1436.67
726.33	1163.33
726.45	1106.67
726.57	1078.00
726.69	1123.00
726.81	1125.00
726.92	1096.67
727.04	1125.00
727.16	1154.67
727.28	1114.00
727.40	1116.00
727.52	1128.33
727.64	1266.00
727.76	1218.00
727.88	1143.00
727.99	1062.67
728.11	1084.33
728.23	1106.67
728.35	1092.33
728.47	1100.33
728.59	1109.67
728.71	1139.00
728.83	1139.67
728.94	1156.33
729.06	1218.00
729.18	1199.33
729.30	1140.00
729.42	1112.67
729.54	1212.33
729.66	1227.33
729.78	1126.67
729.90	1126.00
730.01	1102.33
730.13	1028.00
730.25	1106.00
730.37	1107.00
730.49	1157.33
730.61	1163.33
730.73	1138.00
730.84	1158.67
730.96	1160.33
731.08	1144.33
731.20	1123.33
731.32	1125.67
731.44	1290.67
731.56	1124.33
731.68	1080.67
731.79	1129.00
731.91	1104.33
732.03	1102.33
732.15	1123.67
732.27	1090.33
732.39	1105.00
732.51	1170.67
732.62	1096.00
732.74	1114.33
732.86	1184.67
732.98	1143.00
733.10	1115.67
733.22	1124.33
733.34	1148.67
733.45	1063.67
733.57	1117.33
733.69	1082.67
733.81	1116.00
733.93	1138.00
734.05	1052.67
734.17	1109.00
734.28	1115.67
734.40	1131.33
734.52	1103.67
734.64	1107.67
734.76	1213.00
734.88	1141.00
735.00	1095.33
735.11	1129.67
735.23	1186.00
735.35	1113.00
735.47	1067.33
735.59	1158.67
735.71	1131.67
735.83	1142.00
735.94	1138.33
736.06	1141.33
736.18	1193.67
736.30	1182.00
736.42	1155.67
736.54	1144.67
736.65	1168.00
736.77	1312.00
736.89	1170.33
737.01	1131.67
737.13	1243.67
737.25	1050.67
737.36	1089.33
737.48	1128.00
737.60	1142.33
737.72	1114.33
737.84	1122.33
737.96	1162.67
738.08	1127.67
738.19	1225.00
738.31	1124.67
738.43	1134.33
738.55	1131.33
738.67	1150.33
738.79	1104.00
738.90	1124.67
739.02	1152.00
739.14	1112.33
739.26	1119.00
739.38	1116.33
739.50	1162.33
739.61	1134.00
739.73	1133.33
739.85	1110.67
739.97	1157.00
740.09	1197.67
740.20	1086.00
740.32	1145.00
740.44	1172.33
740.56	1103.00
740.68	1106.67
740.80	1136.67
740.91	1146.33
741.03	1186.33
741.15	1165.00
741.27	1119.33
741.39	1186.67
741.51	1152.00
741.62	1177.67
741.74	1135.67
741.86	1125.00
741.98	1108.33
742.10	1134.33
742.21	1150.00
742.33	1142.33
742.45	1107.33
742.57	1171.67
742.69	1121.00
742.80	1181.33
742.92	1139.00
743.04	1125.67
743.16	1111.67
743.28	1191.33
743.40	1098.67
743.51	1100.33
743.63	1093.33
743.75	1141.67
743.87	1133.33
743.99	1158.67
744.10	1130.00
744.22	1148.00
744.34	1104.67
744.46	1148.33
744.58	1137.67
744.69	1062.00
744.81	1143.67
744.93	1084.67
745.05	1079.33
745.17	1224.33
745.28	1229.00
745.40	1140.67
745.52	1130.67
745.64	1147.67
745.76	1185.33
745.87	1135.33
745.99	1098.00
746.11	1146.00
746.23	1109.33
746.35	1122.33
746.46	1107.67
746.58	1262.67
746.70	1152.67
746.82	1148.33
746.94	1128.33
747.05	1103.00
747.17	1077.67
747.29	1074.00
747.41	1113.33
747.53	1269.67
747.64	1119.00
747.76	1186.33
747.88	1184.67
748.00	1199.33
748.12	1152.00
748.23	1122.33
748.35	1142.00
748.47	1180.67
748.59	1186.67
748.70	1121.67
748.82	1091.67
748.94	1101.67
749.06	1114.33
749.18	1115.00
749.29	1084.00
749.41	1161.67
749.53	1142.33
749.65	1108.33
749.76	1151.33
749.88	1130.00
750.00	1161.67
750.12	1163.67
750.24	1151.33
750.35	1145.33
750.47	1101.67
750.59	1139.67
750.71	1122.00
750.82	1172.00
750.94	1108.67
751.06	1109.67
751.18	1109.00
751.30	1175.67
751.41	1183.67
751.53	1154.33
751.65	1102.00
751.77	1124.33
751.88	1153.00
752.00	1171.33
752.12	1082.33
752.24	1198.00
752.35	1161.67
752.47	1167.67
752.59	1172.00
752.71	1221.00
752.83	1123.00
752.94	1186.33
753.06	1101.67
753.18	1139.33
753.30	1119.67
753.41	1058.67
753.53	1106.00
753.65	1110.00
753.77	1194.00
753.88	1107.67
754.00	1148.00
754.12	1152.67
754.24	1214.67
754.35	1108.00
754.47	1066.67
754.59	1164.00
754.71	1175.67
754.82	1132.33
754.94	1128.67
755.06	1183.00
755.18	1161.33
755.29	1131.33
755.41	1109.33
755.53	1160.33
755.65	1112.67
755.76	1140.00
755.88	1138.67
756.00	1198.33
756.12	1119.33
756.23	1036.00
756.35	1082.67
756.47	1183.33
756.59	1110.33
756.70	1098.33
756.82	1101.33
756.94	1119.67
757.06	1162.33
757.17	1145.33
757.29	1121.67
757.41	1079.67
757.53	1146.33
757.64	1118.00
757.76	1122.33
757.88	1149.00
758.00	1165.00
758.11	1105.33
758.23	1087.33
758.35	1145.00
758.47	1097.67
758.58	1136.67
758.70	1072.67
758.82	1099.00
758.94	1075.33
759.05	1123.33
759.17	1064.67
759.29	1109.33
759.40	1206.67
759.52	1107.33
759.64	1102.33
759.76	1133.33
759.87	1145.00
759.99	1126.67
760.11	1106.33
760.23	1134.33
760.34	1168.00
760.46	1144.67
760.58	1108.33
760.70	1119.67
760.81	1186.00
760.93	1138.00
761.05	1162.33
761.16	1146.67
761.28	1104.00
761.40	1098.00
761.52	1086.33
761.63	1193.67
761.75	1132.67
761.87	1100.33
761.98	1067.00
762.10	1158.00
762.22	1122.00
762.34	1143.67
762.45	1100.33
762.57	1166.00
762.69	1282.00
762.81	1103.33
762.92	1144.67
763.04	1068.67
763.16	1140.00
763.27	1141.00
763.39	1095.00
763.51	1161.67
763.63	1155.67
763.74	1102.33
763.86	1057.33
763.98	1086.33
764.09	1120.00
764.21	1133.33
764.33	1069.00
764.44	1095.67
764.56	1128.67
764.68	1092.33
764.80	1125.00
764.91	1065.67
765.03	1186.33
765.15	1106.67
765.26	1113.33
765.38	1066.33
765.50	1159.67
765.62	1125.00
765.73	1110.00
765.85	1136.67
765.97	1072.33
766.08	1113.33
766.20	1128.33
766.32	1132.33
766.43	1165.00
766.55	1153.00
766.67	1098.00
766.79	1116.67
766.90	1078.00
767.02	1052.67
767.14	1067.00
767.25	1075.00
767.37	1219.00
767.49	1141.33
767.60	1107.33
767.72	1166.33
767.84	1143.33
767.95	1113.67
768.07	1063.33
768.19	1132.33
768.31	1145.67
768.42	1118.67
768.54	1091.67
768.66	1117.33
768.77	1159.33
768.89	1116.67
769.01	1084.33
769.12	1137.33
769.24	1115.00
769.36	1071.33
769.47	1060.67
769.59	1055.33
769.71	1134.33
769.82	1107.33
769.94	1096.67
770.06	1067.67
770.17	1158.33
770.29	1127.33
770.41	1130.00
770.53	1135.33
770.64	1066.67
770.76	1116.00
770.88	1121.00
770.99	1157.33
771.11	1068.00
771.23	1111.33
771.34	1101.67
771.46	1202.33
771.58	1165.67
771.69	1141.00
771.81	1104.00
771.93	1153.00
772.04	1077.33
772.16	1116.33
772.28	1095.33
772.39	1163.33
772.51	1111.33
772.63	1133.67
772.74	1096.33
772.86	1088.00
772.98	1236.00
773.09	1077.33
773.21	1085.67
773.33	1122.33
773.44	1122.33
773.56	1105.67
773.68	1092.67
773.79	1152.67
773.91	1105.33
774.03	1106.33
774.14	1097.33
774.26	1157.67
774.38	1079.33
774.49	1063.00
774.61	1104.00
774.73	1114.67
774.84	1098.67
774.96	1057.33
775.08	1099.67
775.19	1120.67
775.31	1160.33
775.43	1108.67
775.54	1079.33
775.66	1045.00
775.77	1158.00
775.89	1051.67
776.01	1125.00
776.12	1151.33
776.24	1116.67
776.36	1061.33
776.47	1071.00
776.59	1125.33
776.71	1159.67
776.82	1037.67
776.94	1056.00
777.06	1081.33
777.17	1167.33
777.29	1065.33
777.41	1078.00
777.52	1132.67
777.64	1114.33
777.75	1127.00
777.87	1042.33
777.99	1083.67
778.10	1150.00
778.22	1067.33
778.34	1096.67
778.45	1099.00
778.57	1137.67
778.69	1123.33
778.80	1100.67
778.92	1200.67
779.04	1117.67
779.15	1085.67
779.27	1133.67
779.38	1129.67
779.50	1155.33
779.62	1044.67
779.73	1086.00
779.85	1039.67
779.97	1221.67
780.08	1089.00
780.20	1079.33
780.31	1119.00
780.43	1133.67
780.55	1064.67
780.66	1086.33
780.78	1105.00
780.90	1196.33
781.01	1065.00
781.13	1097.67
781.25	1078.33
781.36	1146.33
781.48	1061.33
781.59	1093.67
781.71	1121.00
781.83	1126.67
781.94	1064.33
782.06	1063.67
782.18	1138.67
782.29	1081.67
782.41	1024.67
782.52	1112.33
782.64	1129.00
782.76	1094.67
782.87	1104.00
782.99	1063.00
783.10	1233.67
783.22	1243.00
783.34	1092.33
783.45	1085.67
783.57	1092.00
783.69	1069.67
783.80	1104.33
783.92	1112.00
784.03	1077.67
784.15	1060.33
784.27	1077.00
784.38	1073.33
784.50	1106.33
784.61	1094.33
784.73	1053.33
784.85	1055.33
784.96	1055.00
785.08	1141.00
785.19	1115.00
785.31	1064.67
785.43	1058.33
785.54	1046.00
785.66	1099.00
785.77	1083.33
785.89	1092.00
786.01	1028.67
786.12	1059.67
786.24	1075.00
786.35	1165.00
786.47	1090.67
786.59	1054.67
786.70	1033.00
786.82	1083.67
786.93	1102.00
787.05	1082.33
787.17	1097.33
787.28	1076.00
787.40	1089.00
787.51	1088.00
787.63	1095.67
787.75	1042.00
787.86	1090.33
787.98	1100.00
788.09	1074.00
788.21	1100.00
788.33	1124.33
788.44	1097.33
788.56	1041.67
788.67	1106.67
788.79	1063.67
788.91	1082.67
789.02	1059.33
789.14	1055.00
789.25	1173.67
789.37	1105.00
789.48	1053.67
789.60	1087.33
789.72	1047.00
789.83	1099.00
789.95	1077.33
790.06	1016.00
790.18	1039.33
790.30	1101.67
790.41	1090.67
790.53	1056.33
790.64	1028.33
790.76	1029.00
790.87	1064.33
790.99	1079.67
791.11	1093.33
791.22	1050.33
791.34	1068.33
791.45	1125.00
791.57	1100.33
791.68	1039.33
791.80	1030.67
791.92	1095.00
792.03	1047.00
792.15	1014.00
792.26	1047.67
792.38	1020.67
792.49	1096.67
792.61	1050.00
792.73	1075.00
792.84	1057.33
792.96	1167.67
793.07	1053.00
793.19	1916.00
793.30	1153.00
793.42	1117.00
793.54	987.00
793.65	1009.00
793.77	1195.00
793.88	1055.67
794.00	1016.00
794.11	1060.00
794.23	995.33
794.34	1078.00
794.46	1002.33
794.58	1014.67
794.69	1165.00
794.81	1144.33
794.92	1024.00
795.04	1023.67
795.15	1143.67
795.27	1100.00
795.39	1060.00
795.50	1030.33
795.62	1030.00
795.73	1047.00
795.85	1025.33
795.96	1068.00
796.08	1113.00
796.19	1031.33
796.31	1034.67
796.42	1005.00
796.54	1024.33
796.66	1112.00
796.77	1015.00
796.89	1007.33
797.00	1104.67
797.12	975.67
797.23	1023.00
797.35	1054.33
797.46	1090.33
797.58	1122.00
797.69	1057.67
797.81	1023.00
797.93	1042.67
798.04	1020.67
798.16	1021.67
798.27	1048.67
798.39	1010.67
798.50	994.67
798.62	1005.67
798.73	1005.00
798.85	1132.33
798.96	1056.00
799.08	1062.67
799.19	1068.67
799.31	1032.00
799.43	1050.00
799.54	1008.00
799.66	1045.67
799.77	1085.00
799.89	1009.33
800.00	979.00
800.12	1021.00
800.23	1103.00
800.35	1139.67
800.46	973.33
800.58	965.33
800.69	1044.00
800.81	1029.67
800.92	1003.00
801.04	1041.33
801.16	970.00
801.27	977.00
801.39	992.67
801.50	1009.00
801.62	1029.67
801.73	1094.33
801.85	1076.33
801.96	1004.67
802.08	1108.00
802.19	1100.33
802.31	1017.67
802.42	1025.33
802.54	1120.67
802.65	1094.33
802.77	998.67
802.88	1050.00
803.00	991.00
803.11	1144.67
803.23	1030.00
803.34	1025.67
803.46	1055.00
803.57	986.67
803.69	1056.67
803.80	980.67
803.92	1100.33
804.03	1024.67
804.15	1047.33
804.26	1057.33
804.38	1075.33
804.50	1002.00
804.61	1028.00
804.73	1018.00
804.84	1026.33
804.96	961.00
805.07	1019.00
805.19	994.33
805.30	1051.00
805.42	1068.67
805.53	1023.00
805.65	993.67
805.76	975.00
805.88	1013.00
805.99	1022.67
806.11	1040.33
806.22	997.00
806.34	1003.33
806.45	1015.67
806.57	998.33
806.68	1068.00
806.80	934.00
806.91	969.67
807.03	962.67
807.14	949.33
807.26	962.00
807.37	954.00
807.49	1007.67
807.60	986.33
807.72	1090.00
807.83	1076.33
807.95	1030.00
808.06	1043.33
808.17	1023.67
808.29	1031.67
808.40	960.00
808.52	1000.67
808.63	1020.67
808.75	1007.33
808.86	991.33
808.98	1028.67
809.09	972.33
809.21	1001.67
809.32	966.33
809.44	1025.00
809.55	959.00
809.67	1009.00
809.78	953.00
809.90	1023.00
810.01	1068.67
810.13	967.67
810.24	1006.33
810.36	942.67
810.47	967.33
810.59	977.00
810.70	994.00
810.82	1024.33
810.93	934.00
811.05	957.67
811.16	955.00
811.27	946.33
811.39	990.00
811.50	1006.67
811.62	918.67
811.73	896.00
811.85	985.00
811.96	975.67
812.08	988.67
812.19	972.33
812.31	1002.67
812.42	958.00
812.54	937.00
812.65	1026.33
812.77	1022.33
812.88	998.67
813.00	994.67
813.11	1003.00
813.22	931.33
813.34	929.00
813.45	959.33
813.57	1064.00
813.68	1064.33
813.80	969.33
813.91	922.67
814.03	952.33
814.14	1050.00
814.26	927.00
814.37	945.00
814.49	960.00
814.60	928.33
814.71	911.33
814.83	931.33
814.94	904.00
815.06	933.33
815.17	948.33
815.29	926.67
815.40	899.00
815.52	1038.00
815.63	932.33
815.75	920.33
815.86	960.33
815.97	894.67
816.09	929.00
816.20	952.67
816.32	964.00
816.43	886.33
816.55	946.00
816.66	919.33
816.78	1030.00
816.89	937.67
817.00	936.67
817.12	907.67
817.23	904.00
817.35	975.33
817.46	930.33
817.58	894.33
817.69	1056.67
817.81	933.33
817.92	954.33
818.03	928.00
818.15	934.67
818.26	888.33
818.38	877.33
818.49	905.33
818.61	935.67
818.72	884.00
818.83	2105.33
818.95	1068.00
819.06	897.67
819.18	898.00
819.29	913.00
819.41	893.67
819.52	927.33
819.64	917.67
819.75	884.67
819.86	854.00
819.98	894.67
820.09	948.67
820.21	903.67
820.32	866.00
820.44	926.00
820.55	983.00
820.66	873.67
820.78	930.00
820.89	896.00
821.01	928.33
821.12	899.67
821.23	905.33
821.35	888.00
821.46	957.00
821.58	889.33
821.69	876.00
821.81	862.67
821.92	960.33
822.03	881.00
822.15	892.67
822.26	852.33
822.38	855.67
822.49	889.33
822.61	889.33
822.72	899.00
822.83	946.00
822.95	876.00
823.06	881.67
823.18	932.67
823.29	960.00
823.40	904.33
823.52	874.67
823.63	845.67
823.75	995.00
823.86	877.33
823.97	816.67
824.09	917.00
824.20	852.33
824.32	882.00
824.43	860.00
824.55	915.67
824.66	981.67
824.77	867.33
824.89	887.33
825.00	940.00
825.12	889.67
825.23	887.33
825.34	822.00
825.46	825.67
825.57	905.00
825.69	848.00
825.80	795.67
825.91	842.33
826.03	818.00
826.14	887.33
826.26	828.00
826.37	874.00
826.48	851.00
826.60	869.67
826.71	838.67
826.83	872.33
826.94	877.00
827.05	895.33
827.17	883.00
827.28	852.00
827.39	842.67
827.51	813.00
827.62	840.00
827.74	864.67
827.85	856.67
827.96	826.33
828.08	840.67
828.19	958.33
828.31	846.33
828.42	792.00
828.53	869.33
828.65	910.33
828.76	928.67
828.87	873.67
828.99	819.00
